#Rx
# X(m), Y(m), Z(m), Distance(m), Power (dBm) Phase (deg)
1 596.182 661.779 40.2026 0 -62.3109 91.8898
2 596.179 661.679 40.2092 0.1 -63.4646 114.741
3 596.176 661.579 40.2158 0.2 -68.4717 -34.9404
4 596.173 661.479 40.2224 0.3 -62.7494 -29.3791
5 596.17 661.379 40.229 0.4 -71.8146 -31.2646
6 596.167 661.279 40.2355 0.5 -70.4776 -163.77
7 596.163 661.179 40.2421 0.6 -64.0078 -137.386
8 596.16 661.08 40.2487 0.7 -74.0479 168.084
9 596.157 660.98 40.2553 0.8 -70.9349 95.7626
10 596.154 660.88 40.2619 0.9 -68.8458 122.253
11 596.151 660.78 40.2685 1 -76.2164 -45.5229
12 596.148 660.68 40.2751 1.1 -66.81 10.2022
13 596.145 660.58 40.2817 1.2 -78.6169 18.6208
14 596.142 660.48 40.2883 1.3 -72.5665 172.898
15 596.138 660.38 40.2949 1.4 -64.5273 -91.566
16 596.135 660.28 40.3015 1.5 -70.6666 -33.2796
17 596.132 660.18 40.3081 1.6 -71.7996 90.7008
18 596.129 660.08 40.3147 1.7 -63.0404 146.891
19 596.126 659.98 40.3213 1.8 -64.6501 -151.477
20 596.123 659.88 40.3279 1.9 -66.5164 10.7022
21 596.12 659.78 40.3345 2 -62.1686 24.2255
22 596.116 659.68 40.3411 2.1 -66.0661 83.4691
23 596.113 659.58 40.3477 2.2 -63.0278 -128.979
24 596.11 659.48 40.3543 2.3 -61.6056 -93.7188
25 596.107 659.38 40.3609 2.4 -72.2949 -74.1075
26 596.104 659.28 40.3675 2.5 -60.8853 97.8112
27 596.101 659.18 40.3741 2.6 -61.856 140.019
28 596.098 659.081 40.3806 2.7 -82.1635 -29.4259
29 596.094 658.981 40.3872 2.8 -61.1582 -32.2392
30 596.091 658.881 40.3938 2.9 -63.042 -7.77129
31 596.088 658.781 40.4004 3 -66.5164 177.027
32 596.085 658.681 40.407 3.1 -63.6117 -156.483
33 596.082 658.581 40.4136 3.2 -67.5019 -146.051
34 596.079 658.481 40.4202 3.3 -65.8979 42.8341
35 596.076 658.381 40.4268 3.4 -65.3437 69.4538
36 596.072 658.281 40.4334 3.5 -79.0637 -60.7433
37 596.069 658.181 40.44 3.6 -69.7567 -77.4492
38 596.066 658.081 40.4466 3.7 -68.3396 -56.5457
39 596.063 657.981 40.4532 3.8 -72.3102 149.992
40 596.06 657.881 40.4598 3.9 -68.5543 -172.028
41 596.057 657.781 40.4664 4 -78.0615 -72.9902
42 596.054 657.681 40.473 4.1 -72.1721 50.5614
43 596.05 657.581 40.4796 4.2 -65.3017 78.3635
44 596.047 657.481 40.4862 4.3 -77.532 -167.812
45 596.044 657.381 40.4928 4.4 -63.1237 -70.5011
46 596.041 657.281 40.4994 4.5 -66.9751 -42.6874
47 596.038 657.181 40.506 4.6 -77.3412 87.2728
48 596.035 657.082 40.5126 4.7 -59.7943 143.363
49 596.032 656.982 40.5192 4.8 -67.0895 -169.262
50 596.029 656.882 40.5257 4.9 -62.9558 -18.9599
51 596.025 656.782 40.5323 5 -61.9362 4.55831
52 596.022 656.682 40.5389 5.1 -76.1473 42.6538
53 596.019 656.582 40.5455 5.2 -59.4148 -169.079
54 596.016 656.482 40.5521 5.3 -62.8283 -142.782
55 596.013 656.382 40.5587 5.4 -65.5847 29.3899
56 596.01 656.282 40.5653 5.5 -61.8026 39.0722
57 596.007 656.182 40.5719 5.6 -66.6747 84.2583
58 596.003 656.082 40.5785 5.7 -62.9344 -128.667
59 596 655.982 40.5851 5.8 -63.8099 -89.3798
60 595.997 655.882 40.5917 5.9 -80.6419 98.3167
61 595.994 655.782 40.5983 6 -64.6985 75.4943
62 595.991 655.682 40.6049 6.1 -64.9328 118.111
63 595.988 655.582 40.6115 6.2 -66.9886 -63.597
64 595.985 655.482 40.6181 6.3 -65.8727 -33.6879
65 595.981 655.382 40.6247 6.4 -74.2706 -161.527
66 595.978 655.282 40.6313 6.5 -72.0045 115.171
67 595.975 655.182 40.6379 6.6 -71.5095 -129.895
68 595.972 655.082 40.6445 6.7 -71.5219 -26.1208
69 595.969 654.983 40.6511 6.8 -66.377 80.1072
70 595.966 654.883 40.6577 6.9 -82.6944 -83.6233
71 595.963 654.783 40.6643 7 -65.6149 -112.318
72 595.959 654.683 40.6708 7.1 -64.8734 -105.095
73 595.956 654.583 40.6774 7.2 -65.7409 68.1157
74 595.953 654.483 40.684 7.3 -60.838 104.508
75 595.95 654.383 40.6906 7.4 -79.6289 -176.29
76 595.947 654.283 40.6972 7.5 -64.11 -77.7716
77 595.944 654.183 40.7038 7.6 -61.5853 -61.9458
78 595.941 654.083 40.7104 7.7 -66.5719 84.4746
79 595.937 653.983 40.717 7.8 -59.3647 123.073
80 595.934 653.883 40.7236 7.9 -73.7459 169.137
81 595.931 653.783 40.7302 8 -61.5515 -61.6729
82 595.928 653.683 40.7368 8.1 -63.6203 -53.7996
83 595.925 653.583 40.7434 8.2 -64.6514 89.478
84 595.922 653.483 40.75 8.3 -61.926 130.258
85 595.919 653.383 40.7566 8.4 -74.5654 -152.49
86 595.916 653.283 40.7632 8.5 -62.7407 -46.7682
87 595.912 653.183 40.7698 8.6 -66.1131 -52.6237
88 595.909 653.083 40.7764 8.7 -68.4015 123.008
89 595.906 652.984 40.783 8.8 -62.1165 159.601
90 595.903 652.884 40.7896 8.9 -77.3949 165.019
91 595.9 652.784 40.7962 9 -65.331 14.6115
92 595.897 652.684 40.8028 9.1 -67.7371 -8.20814
93 595.894 652.584 40.8094 9.2 -64.982 -125.132
94 595.89 652.484 40.8159 9.3 -66.3095 -175.524
95 595.887 652.384 40.8225 9.4 -74.2664 107.644
96 595.884 652.284 40.8291 9.5 -61.4516 39.5847
97 595.881 652.184 40.8357 9.6 -63.1058 147.381
98 595.878 652.084 40.8423 9.7 -75.1474 -135.458
99 595.875 651.984 40.8489 9.8 -69.0616 -68.5659
100 595.872 651.884 40.8555 9.9 -64.6758 -42.919
101 595.868 651.784 40.8621 10 -63.2541 66.2087
102 595.865 651.684 40.8687 10.1 -62.8896 145.8
103 595.862 651.584 40.8753 10.2 -66.0781 -135.155
104 595.859 651.484 40.8819 10.3 -64.8999 -71.0396
105 595.856 651.384 40.8885 10.4 -66.2363 -8.50188
106 595.853 651.284 40.8951 10.5 -65.8278 57.9077
107 595.85 651.184 40.9017 10.6 -62.0727 114.52
108 595.846 651.084 40.9083 10.7 -60.5392 -140.968
109 595.843 650.985 40.9149 10.8 -62.7946 -57.5156
110 595.84 650.885 40.9215 10.9 -66.2926 37.2686
111 595.837 650.785 40.9281 11 -85.1785 4.48635
112 595.834 650.685 40.9347 11.1 -65.1632 86.7101
113 595.831 650.585 40.9413 11.2 -61.7243 -160.055
114 595.828 650.485 40.9479 11.3 -63.9232 -54.8948
115 595.824 650.385 40.9545 11.4 -66.2241 49.7503
116 595.821 650.285 40.961 11.5 -72.163 162.895
117 595.818 650.185 40.9676 11.6 -86.8197 -81.8518
118 595.815 650.085 40.9742 11.7 -76.0563 149.381
119 595.812 649.985 40.9808 11.8 -66.8735 -35.2246
120 595.809 649.885 40.9874 11.9 -68.408 97.4309
121 595.806 649.785 40.994 12 -74.7123 140.981
122 595.803 649.685 41.0006 12.1 -67.925 -132.508
123 595.799 649.585 41.0072 12.2 -66.1034 -68.5426
124 595.796 649.485 41.0138 12.3 -63.8412 18.6635
125 595.793 649.385 41.0204 12.4 -64.7673 99.79
126 595.79 649.285 41.027 12.5 -62.2287 177.13
127 595.787 649.185 41.0336 12.6 -67.4141 -87.8934
128 595.784 649.085 41.0402 12.7 -69.3425 -82.206
129 595.781 648.986 41.0468 12.8 -65.5092 -7.88663
130 595.777 648.886 41.0534 12.9 -61.5008 62.2793
131 595.774 648.786 41.06 13 -62.3104 152.475
132 595.771 648.686 41.0666 13.1 -63.5796 -138.044
133 595.768 648.586 41.0732 13.2 -63.8219 -50.1674
134 595.765 648.486 41.0798 13.3 -69.7227 -11.9508
135 595.762 648.386 41.0864 13.4 -67.8205 56.2547
136 595.759 648.286 41.093 13.5 -67.637 111.225
137 595.755 648.186 41.0996 13.6 -63.4887 -163.385
138 595.752 648.086 41.1061 13.7 -66.9783 -74.6651
139 595.749 647.986 41.1127 13.8 -65.8711 7.67084
140 595.746 647.886 41.1193 13.9 -67.5465 117.457
141 595.743 647.786 41.1259 14 -73.3475 -154.935
142 595.74 647.686 41.1325 14.1 -71.2217 -54.0344
143 595.737 647.586 41.1391 14.2 -82.6705 30.0597
144 595.733 647.486 41.1457 14.3 -70.9608 44.5881
145 595.73 647.386 41.1523 14.4 -72.6658 144.886
146 595.727 647.286 41.1589 14.5 -67.5276 -175.818
147 595.724 647.186 41.1655 14.6 -66.5349 -91.9177
148 595.721 647.086 41.1721 14.7 -64.3563 -32.3417
149 595.718 646.986 41.1787 14.8 -63.3461 60.8795
150 595.715 646.887 41.1853 14.9 -64.8767 116.684
151 595.711 646.787 41.1919 15 -64.9335 -170.889
152 595.708 646.687 41.1985 15.1 -66.0924 -127.374
153 595.705 646.587 41.2051 15.2 -62.6941 -50.2473
154 595.702 646.487 41.2117 15.3 -63.82 13.6806
155 595.699 646.387 41.2183 15.4 -62.9207 83.5777
156 595.696 646.287 41.2249 15.5 -65.5444 156.715
157 595.693 646.187 41.2315 15.6 -63.2134 -143.819
158 595.69 646.087 41.2381 15.7 -66.0851 -66.8812
159 595.686 645.987 41.2447 15.8 -67.0599 -0.65399
160 595.683 645.887 41.2512 15.9 -69.5174 95.4544
161 595.68 645.787 41.2578 16 -72.2824 92.5861
162 595.677 645.687 41.2644 16.1 -75.7687 170.849
163 595.674 645.587 41.271 16.2 -70.2745 -138.88
164 595.671 645.487 41.2776 16.3 -67.7307 -33.6648
165 595.668 645.387 41.2842 16.4 -71.0327 47.9091
166 595.664 645.287 41.2908 16.5 -67.1494 148.584
167 595.661 645.187 41.2974 16.6 -67.9773 -125.965
168 595.658 645.087 41.304 16.7 -67.1123 -65.8879
169 595.655 644.987 41.3106 16.8 -65.6686 17.6782
170 595.652 644.888 41.3172 16.9 -63.629 66.056
171 595.649 644.788 41.3238 17 -62.3128 143.394
172 595.646 644.688 41.3304 17.1 -61.9447 -151.725
173 595.642 644.588 41.337 17.2 -60.2013 -77.2779
174 595.639 644.488 41.3436 17.3 -62.1462 -14.9314
175 595.636 644.388 41.3502 17.4 -61.3039 59.6035
176 595.633 644.288 41.3568 17.5 -63.5112 124.892
177 595.63 644.188 41.3634 17.6 -62.9276 -179.081
178 595.627 644.088 41.37 17.7 -65.3378 -112.767
179 595.624 643.988 41.3766 17.8 -63.4651 -50.9679
180 595.62 643.888 41.3832 17.9 -65.9527 10.3626
181 595.617 643.788 41.3898 18 -65.6401 72.1198
182 595.614 643.688 41.3963 18.1 -67.5349 160.745
183 595.611 643.588 41.4029 18.2 -68.4721 -146.151
184 595.608 643.488 41.4095 18.3 -70.0498 -53.9368
185 595.605 643.388 41.4161 18.4 -71.4769 13.6017
186 595.602 643.288 41.4227 18.5 -69.654 91.7651
187 595.598 643.188 41.4293 18.6 -72.9333 159.381
188 595.595 643.088 41.4359 18.7 -67.9441 -127.041
189 595.592 642.988 41.4425 18.8 -68.3728 -59.4782
190 595.589 642.889 41.4491 18.9 -66.0503 -2.6507
191 595.586 642.789 41.4557 19 -66.3783 66.1287
192 595.583 642.689 41.4623 19.1 -64.2034 119.819
193 595.58 642.589 41.4689 19.2 -64.2833 -172.232
194 595.576 642.489 41.4755 19.3 -62.9499 -118.327
195 595.573 642.389 41.4821 19.4 -62.628 -48.6462
196 595.57 642.289 41.4887 19.5 -62.1055 2.85574
197 595.567 642.189 41.4953 19.6 -62.5804 70.2362
198 595.564 642.089 41.5019 19.7 -62.5637 128.705
199 595.561 641.989 41.5085 19.8 -61.9573 -165.231
200 595.558 641.889 41.5151 19.9 -63.4215 -118.236
201 595.555 641.789 41.5217 20 -64.0804 -47.1142
202 595.551 641.689 41.5283 20.1 -63.3183 1.63899
203 595.548 641.589 41.5348 20.2 -65.0043 63.5433
204 595.545 641.489 41.5414 20.3 -68.3785 122.846
205 595.542 641.389 41.548 20.4 -68.5869 -163.289
206 595.539 641.289 41.5546 20.5 -72.9221 -123.594
207 595.536 641.189 41.5612 20.6 -73.3312 20.3918
208 595.533 641.089 41.5678 20.7 -69.7636 78.1607
209 595.529 640.989 41.5744 20.8 -69.0019 152.255
210 595.526 640.889 41.581 20.9 -64.8798 -141.654
211 595.523 640.79 41.5876 21 -63.0568 -99.5048
212 595.52 640.69 41.5942 21.1 -64.2242 -46.2824
213 595.517 640.59 41.6008 21.2 -63.4286 17.7006
214 595.514 640.49 41.6074 21.3 -62.6845 60.6316
215 595.511 640.39 41.614 21.4 -66.9737 111.128
216 595.507 640.29 41.6206 21.5 -66.8264 -162.159
217 595.504 640.19 41.6272 21.6 -66.484 -109.768
218 595.501 640.09 41.6338 21.7 -68.2614 -31.0148
219 595.498 639.99 41.6404 21.8 -63.7903 38.929
220 595.495 639.89 41.647 21.9 -62.7129 74.7074
221 595.492 639.79 41.6536 22 -64.821 124.157
222 595.489 639.69 41.6602 22.1 -64.4463 -176.491
223 595.485 639.59 41.6668 22.2 -64.4732 -140.592
224 595.482 639.49 41.6734 22.3 -74.9432 -99.1133
225 595.479 639.39 41.6799 22.4 -71.435 36.4054
226 595.476 639.29 41.6865 22.5 -72.362 98.2917
227 595.473 639.19 41.6931 22.6 -68.9379 179.16
228 595.47 639.09 41.6997 22.7 -65.7519 -131.786
229 595.467 638.99 41.7063 22.8 -69.094 -96.973
230 595.463 638.89 41.7129 22.9 -68.9777 8.74946
231 595.46 638.791 41.7195 23 -65.9655 61.3595
232 595.457 638.691 41.7261 23.1 -64.6874 122.816
233 595.454 638.591 41.7327 23.2 -62.7186 179.329
234 595.451 638.491 41.7393 23.3 -61.4235 -141.095
235 595.448 638.391 41.7459 23.4 -62.3679 -97.0946
236 595.445 638.291 41.7525 23.5 -64.4359 -34.9485
237 595.442 638.191 41.7591 23.6 -62.7984 16.4949
238 595.438 638.091 41.7657 23.7 -65.2457 74.88
239 595.435 637.991 41.7723 23.8 -63.2937 134.983
240 595.432 637.891 41.7789 23.9 -69.3486 157.344
241 595.429 637.791 41.7855 24 -64.4605 -109.113
242 595.426 637.691 41.7921 24.1 -63.5812 -79.1926
243 595.423 637.591 41.7987 24.2 -76.3226 -52.8672
244 595.42 637.491 41.8053 24.3 -66.108 107.243
245 595.416 637.391 41.8119 24.4 -66.9452 85.6278
246 595.413 637.291 41.8185 24.5 -74.2155 -136.138
247 595.41 637.191 41.825 24.6 -63.8205 -100.984
248 595.407 637.091 41.8316 24.7 -77.6196 -51.0491
249 595.404 636.991 41.8382 24.8 -65.7255 53.0311
250 595.401 636.891 41.8448 24.9 -60.0543 74.6188
251 595.398 636.792 41.8514 25 -68.8597 96.2841
252 595.394 636.692 41.858 25.1 -64.5589 -158.39
253 595.391 636.592 41.8646 25.2 -61.4153 -136.367
254 595.388 636.492 41.8712 25.3 -64.5718 -64.0936
255 595.385 636.392 41.8778 25.4 -61.5669 -24.0632
256 595.382 636.292 41.8844 25.5 -61.9432 -9.147
257 595.379 636.192 41.891 25.6 -67.0234 61.8277
258 595.376 636.092 41.8976 25.7 -61.3455 163.624
259 595.372 635.992 41.9042 25.8 -61.6396 147.804
260 595.369 635.892 41.9108 25.9 -71.557 151.231
261 595.366 635.792 41.9174 26 -64.1987 -37.8001
262 595.363 635.692 41.924 26.1 -66.2968 -29.7449
263 595.36 635.592 41.9306 26.2 -89.9622 91.5477
264 595.357 635.492 41.9372 26.3 -67.7419 116.648
265 595.354 635.392 41.9438 26.4 -73.7232 -159.993
266 595.35 635.292 41.9504 26.5 -63.0006 -101.659
267 595.347 635.192 41.957 26.6 -67.7263 -110.76
268 595.344 635.092 41.9636 26.7 -67.7115 32.755
269 595.341 634.992 41.9701 26.8 -58.8672 37.5783
270 595.338 634.892 41.9767 26.9 -64.7624 45.5998
271 595.335 634.793 41.9833 27 -65.673 -170.934
272 595.332 634.693 41.9899 27.1 -58.8397 170.209
273 595.329 634.593 41.9965 27.2 -63.8978 -176.02
274 595.325 634.493 42.0031 27.3 -62.7268 -51.7249
275 595.322 634.393 42.0097 27.4 -62.3229 -52.6864
276 595.319 634.293 42.0163 27.5 -69.5673 -37.1202
277 595.316 634.193 42.0229 27.6 -65.0104 61.6171
278 595.313 634.093 42.0295 27.7 -65.2306 85.1927
279 595.31 633.993 42.0361 27.8 -72.163 -156.422
280 595.307 633.893 42.0427 27.9 -68.6357 -137.792
281 595.303 633.793 42.0493 28 -82.9269 122.926
282 595.3 633.693 42.0559 28.1 -66.5796 -17.944
283 595.297 633.593 42.0625 28.2 -67.8366 12.7343
284 595.294 633.493 42.0691 28.3 -64.7292 119.418
285 595.291 633.393 42.0757 28.4 -64.5183 139.989
286 595.288 633.293 42.0823 28.5 -67.6885 174.404
287 595.285 633.193 42.0889 28.6 -64.0573 -121.751
288 595.281 633.093 42.0955 28.7 -60.4408 -97.7821
289 595.278 632.993 42.1021 28.8 -65.1383 -43.8586
290 595.275 632.893 42.1087 28.9 -60.9211 15.2586
291 595.272 632.793 42.1152 29 -64.4172 23.5875
292 595.269 632.694 42.1218 29.1 -65.7727 91.8153
293 595.266 632.594 42.1284 29.2 -63.5166 124.56
294 595.263 632.494 42.135 29.3 -65.353 169.255
295 595.259 632.394 42.1416 29.4 -69.3858 -123.37
296 595.256 632.294 42.1482 29.5 -66.3269 -70.3123
297 595.253 632.194 42.1548 29.6 -81.3584 -41.7297
298 595.25 632.094 42.1614 29.7 -66.6382 59.0882
299 595.247 631.994 42.168 29.8 -71.7463 63.2651
300 595.258 631.896 42.1739 29.9 -72.4832 -9.5083
301 595.284 631.799 42.1791 30 -67.5817 47.79
302 595.309 631.702 42.1843 30.1 -62.4748 151.946
303 595.334 631.605 42.1895 30.2 -61.4943 -152.434
304 595.36 631.509 42.1947 30.3 -61.1428 -69.2087
305 595.385 631.412 42.1999 30.4 -64.4589 39.0738
306 595.411 631.315 42.2051 30.5 -67.0021 61.6163
307 595.436 631.219 42.2103 30.6 -59.0956 116.691
308 595.462 631.122 42.2155 30.7 -61.7659 -144.185
309 595.487 631.025 42.2207 30.8 -67.9266 -56.0252
310 595.513 630.928 42.2259 30.9 -66.1652 -2.06403
311 595.538 630.832 42.2311 31 -64.5229 28.876
312 595.564 630.735 42.2363 31.1 -64.6681 86.7327
313 595.589 630.638 42.2415 31.2 -64.5054 -162.936
314 595.614 630.542 42.2467 31.3 -63.1613 -50.1011
315 595.64 630.445 42.2519 31.4 -74.6948 54.748
316 595.665 630.348 42.2571 31.5 -73.2961 -65.5229
317 595.691 630.252 42.2623 31.6 -68.6925 105.655
318 595.716 630.155 42.2675 31.7 -61.421 -155.66
319 595.742 630.058 42.2727 31.8 -62.5399 -95.6349
320 595.767 629.961 42.2779 31.9 -65.9852 -36.8512
321 595.793 629.865 42.2831 32 -66.1525 31.6769
322 595.818 629.768 42.2883 32.1 -64.1381 85.3819
323 595.843 629.671 42.2935 32.2 -63.4415 111.116
324 595.869 629.575 42.2986 32.3 -62.6375 166.935
325 595.894 629.478 42.3038 32.4 -65.3898 -122.528
326 595.92 629.381 42.309 32.5 -68.6027 -45.5111
327 595.945 629.284 42.3142 32.6 -64.3579 -9.39813
328 595.971 629.188 42.3194 32.7 -62.2985 37.2047
329 595.996 629.091 42.3246 32.8 -64.0579 97.8702
330 596.022 628.994 42.3298 32.9 -72.9568 156.503
331 596.047 628.898 42.335 33 -69.5502 -177.612
332 596.073 628.801 42.3402 33.1 -62.5153 -131.608
333 596.098 628.704 42.3454 33.2 -60.1596 -65.4186
334 596.123 628.608 42.3506 33.3 -63.8161 2.48731
335 596.149 628.511 42.3558 33.4 -73.21 111.458
336 596.174 628.414 42.361 33.5 -77.8644 -24.9897
337 596.2 628.317 42.3662 33.6 -65.0421 78.099
338 596.225 628.221 42.3714 33.7 -59.7941 142.1
339 596.251 628.124 42.3766 33.8 -61.4251 -166.054
340 596.276 628.027 42.3818 33.9 -68.5466 -100.829
341 596.302 627.931 42.387 34 -83.9724 -134.729
342 596.327 627.834 42.3922 34.1 -67.1967 -81.0481
343 596.352 627.737 42.3974 34.2 -60.6545 -29.4676
344 596.378 627.64 42.4026 34.3 -59.2663 23.272
345 596.403 627.544 42.4078 34.4 -61.6272 72.7841
346 596.429 627.447 42.413 34.5 -71.1929 125.34
347 596.454 627.35 42.4182 34.6 -83.5318 76.1072
348 596.48 627.254 42.4234 34.7 -67.8524 117.639
349 596.505 627.157 42.4286 34.8 -64.6168 175.261
350 596.531 627.06 42.4338 34.9 -62.4273 -143.689
351 596.556 626.963 42.439 35 -63.8251 -129.122
352 596.581 626.867 42.4442 35.1 -64.9692 -121.968
353 596.607 626.77 42.4494 35.2 -63.7046 -92.3448
354 596.632 626.673 42.4546 35.3 -65.3362 -42.3057
355 596.658 626.577 42.4598 35.4 -66.3311 7.58393
356 596.683 626.48 42.465 35.5 -69.4053 -0.0626342
357 596.709 626.383 42.4702 35.6 -65.7764 -1.0289
358 596.734 626.287 42.4754 35.7 -61.6021 22.7432
359 596.76 626.19 42.4806 35.8 -60.4446 42.5218
360 596.785 626.093 42.4858 35.9 -62.6052 71.3611
361 596.811 625.996 42.491 36 -65.3071 111.012
362 596.836 625.9 42.4962 36.1 -74.9737 130.576
363 596.861 625.803 42.5014 36.2 -73.3527 27.8163
364 596.887 625.706 42.5066 36.3 -65.4986 82.3351
365 596.912 625.61 42.5118 36.4 -61.5426 134.552
366 596.938 625.513 42.517 36.5 -63.1915 144.221
367 596.963 625.416 42.5221 36.6 -69.8448 138.029
368 597.026 625.348 42.5239 36.7 -63.8061 -40.2817
369 597.114 625.3 42.5234 36.8 -78.3033 -44.2062
370 597.201 625.252 42.5229 36.9 -63.127 38.1334
371 597.289 625.204 42.5223 37 -70.1689 21.6731
372 597.377 625.156 42.5218 37.1 -63.9725 87.6493
373 597.464 625.108 42.5213 37.2 -60.83 48.7945
374 597.552 625.06 42.5207 37.3 -64.5955 80.7335
375 597.64 625.012 42.5202 37.4 -60.5539 63.5858
376 597.727 624.964 42.5197 37.5 -64.9308 46.8961
377 597.815 624.916 42.5191 37.6 -62.0655 41.6807
378 597.903 624.867 42.5186 37.7 -67.4994 7.84375
379 597.99 624.819 42.5181 37.8 -64.8055 39.0893
380 598.078 624.771 42.5175 37.9 -64.2295 -32.7869
381 598.166 624.723 42.517 38 -66.0729 50.6474
382 598.253 624.675 42.5165 38.1 -62.7945 -64.0146
383 598.341 624.627 42.516 38.2 -65.4275 -43.06
384 598.429 624.579 42.5154 38.3 -63.6317 -103.2
385 598.516 624.531 42.5149 38.4 -63.1437 -149.842
386 598.604 624.483 42.5144 38.5 -61.6244 156.251
387 598.692 624.434 42.5138 38.6 -64.8808 96.2223
388 598.779 624.386 42.5133 38.7 -62.6405 42.915
389 598.867 624.338 42.5128 38.8 -62.9654 -36.9012
390 598.955 624.29 42.5122 38.9 -68.748 -138.678
391 599.042 624.242 42.5117 39 -65.2211 -128.53
392 599.13 624.194 42.5112 39.1 -62.7902 104.291
393 599.218 624.146 42.5106 39.2 -75.2111 140.009
394 599.305 624.098 42.5101 39.3 -61.4318 -10.0045
395 599.393 624.05 42.5096 39.4 -68.3499 -114.715
396 599.481 624.002 42.509 39.5 -62.0484 176.708
397 599.568 623.953 42.5085 39.6 -63.5311 34.1393
398 599.656 623.905 42.508 39.7 -64.39 -16.3037
399 599.744 623.857 42.5075 39.8 -58.7431 -155.097
400 599.831 623.809 42.5069 39.9 -62.6781 46.9997
401 599.919 623.761 42.5064 40 -68.7822 -1.3361
402 600.007 623.713 42.5059 40.1 -63.3786 -152.371
403 600.094 623.665 42.5053 40.2 -68.2762 92.0558
404 600.182 623.617 42.5048 40.3 -64.9756 -47.8269
405 600.27 623.569 42.5043 40.4 -72.5203 156.424
406 600.357 623.52 42.5037 40.5 -66.6745 84.3572
407 600.445 623.472 42.5032 40.6 -64.1497 -66.8222
408 600.533 623.424 42.5027 40.7 -62.9024 136.623
409 600.62 623.376 42.5021 40.8 -64.2874 -36.1813
410 600.708 623.328 42.5016 40.9 -62.8433 -161.744
411 600.796 623.28 42.5011 41 -59.7896 5.27469
412 600.883 623.232 42.5005 41.1 -64.2586 159.372
413 600.971 623.184 42.5 41.2 -66.9347 63.8763
414 601.059 623.136 42.4995 41.3 -61.5422 -143.28
415 601.146 623.087 42.4989 41.4 -63.8535 -9.85238
416 601.234 623.039 42.4984 41.5 -73.3898 -151.009
417 601.322 622.991 42.4979 41.6 -71.5885 66.149
418 601.409 622.943 42.4974 41.7 -64.4247 -133.036
419 601.497 622.895 42.4968 41.8 -61.568 28.6889
420 601.585 622.847 42.4963 41.9 -59.0597 148.095
421 601.672 622.799 42.4958 42 -61.954 -85.1544
422 601.76 622.751 42.4952 42.1 -70.0273 32.9811
423 601.848 622.703 42.4947 42.2 -61.2813 -91.5371
424 601.935 622.655 42.4942 42.3 -60.6053 3.56308
425 602.023 622.606 42.4936 42.4 -69.8593 112.046
426 602.111 622.558 42.4931 42.5 -60.464 -61.5687
427 602.198 622.51 42.4926 42.6 -58.7409 11.7557
428 602.286 622.462 42.492 42.7 -66.0541 76.7614
429 602.374 622.414 42.4915 42.8 -66.454 -58.1851
430 602.461 622.366 42.491 42.9 -66.9849 -9.20243
431 602.549 622.318 42.4904 43 -73.014 -178.895
432 602.637 622.27 42.4899 43.1 -61.7584 -101.326
433 602.724 622.222 42.4894 43.2 -63.834 -38.9835
434 602.812 622.173 42.4889 43.3 -60.926 82.4601
435 602.9 622.125 42.4883 43.4 -59.5733 142.004
436 602.987 622.077 42.4878 43.5 -61.5889 -147.231
437 603.075 622.029 42.4873 43.6 -64.0952 -69.0949
438 603.163 621.981 42.4867 43.7 -65.1556 11.9626
439 603.25 621.933 42.4862 43.8 -64.8537 95.6297
440 603.338 621.885 42.4857 43.9 -63.7614 123.526
441 603.426 621.837 42.4851 44 -75.8312 67.9223
442 603.513 621.789 42.4846 44.1 -63.348 -4.2416
443 603.601 621.741 42.4841 44.2 -60.1014 -28.718
444 603.689 621.692 42.4835 44.3 -62.4941 -55.5763
445 603.776 621.644 42.483 44.4 -74.8635 133.696
446 603.864 621.596 42.4825 44.5 -59.338 113.216
447 603.952 621.548 42.4819 44.6 -58.8769 94.1722
448 604.039 621.5 42.4814 44.7 -66.4168 91.1266
449 604.138 621.492 42.4778 44.8 -61.4672 142.359
450 604.238 621.488 42.4739 44.9 -61.1724 111.086
451 604.338 621.483 42.4701 45 -61.28 98.5744
452 604.438 621.478 42.4663 45.1 -60.6054 71.6524
453 604.538 621.473 42.4624 45.2 -62.4444 34.3844
454 604.638 621.468 42.4586 45.3 -63.8804 -36.3447
455 604.738 621.463 42.4548 45.4 -61.5196 -120.067
456 604.838 621.459 42.4509 45.5 -59.9174 -169.366
457 604.938 621.454 42.4471 45.6 -59.4337 139.541
458 605.037 621.449 42.4432 45.7 -62.6045 69.1337
459 605.137 621.444 42.4394 45.8 -66.585 -35.0931
460 605.237 621.439 42.4356 45.9 -63.8603 -129.707
461 605.337 621.434 42.4317 46 -62.51 153.479
462 605.437 621.43 42.4279 46.1 -65.3215 88.7536
463 605.537 621.425 42.424 46.2 -68.8943 38.1869
464 605.637 621.42 42.4202 46.3 -72.7265 -63.4834
465 605.737 621.415 42.4164 46.4 -67.2925 141.945
466 605.836 621.41 42.4125 46.5 -61.2334 41.4516
467 605.936 621.405 42.4087 46.6 -58.9516 -47.9111
468 606.036 621.401 42.4049 46.7 -59.7872 -143.641
469 606.136 621.396 42.401 46.8 -65.5617 111.917
470 606.236 621.391 42.3972 46.9 -69.8499 -77.3461
471 606.336 621.386 42.3933 47 -62.8952 154.48
472 606.436 621.381 42.3895 47.1 -63.4187 48.9902
473 606.536 621.376 42.3857 47.2 -68.369 -65.9421
474 606.636 621.372 42.3818 47.3 -69.1987 115.526
475 606.735 621.367 42.378 47.4 -65.8971 -22.1335
476 606.835 621.362 42.3742 47.5 -69.5768 -169.539
477 606.935 621.357 42.3703 47.6 -66.1266 9.08364
478 607.035 621.352 42.3665 47.7 -65.4254 -110.74
479 607.135 621.347 42.3626 47.8 -74.0397 175.556
480 607.235 621.343 42.3588 47.9 -67.5692 179.808
481 607.335 621.338 42.355 48 -64.2725 97.5835
482 607.435 621.333 42.3511 48.1 -67.725 10.0573
483 607.534 621.328 42.3473 48.2 -66.8587 15.0021
484 607.634 621.323 42.3435 48.3 -60.6162 -88.7716
485 607.734 621.318 42.3396 48.4 -64.8141 169.03
486 607.834 621.314 42.3358 48.5 -67.9394 134.315
487 607.934 621.309 42.3319 48.6 -67.7337 62.3955
488 608.034 621.304 42.3281 48.7 -65.1694 -5.45362
489 608.134 621.299 42.3243 48.8 -66.8523 -102.763
490 608.234 621.294 42.3204 48.9 -74.0607 162.758
491 608.334 621.289 42.3166 49 -66.8002 170.683
492 608.433 621.285 42.3128 49.1 -65.6854 14.0012
493 608.533 621.28 42.3089 49.2 -76.9476 147.34
494 608.633 621.275 42.3051 49.3 -67.2626 -77.065
495 608.733 621.27 42.3012 49.4 -69.5865 74.704
496 608.833 621.265 42.2974 49.5 -66.4757 -168.434
497 608.933 621.26 42.2936 49.6 -65.4583 18.3103
498 609.033 621.256 42.2897 49.7 -86.1316 -141.398
499 609.133 621.251 42.2859 49.8 -73.3625 -144.392
500 609.232 621.246 42.282 49.9 -82.872 62.4954
501 609.332 621.241 42.2782 50 -73.8905 52.7202
502 609.432 621.236 42.2744 50.1 -77.9073 -29.9036
503 609.532 621.231 42.2705 50.2 -66.6397 -155.281
504 609.632 621.227 42.2667 50.3 -64.5522 13.0749
505 609.732 621.222 42.2629 50.4 -71.2767 -172.778
506 609.832 621.217 42.259 50.5 -66.0088 164.434
507 609.932 621.212 42.2552 50.6 -63.623 -22.5898
508 610.032 621.207 42.2513 50.7 -73.818 37.5026
509 610.131 621.202 42.2475 50.8 -63.1797 173.142
510 610.231 621.198 42.2437 50.9 -75.7062 27.4046
511 610.331 621.193 42.2398 51 -62.5433 -43.6114
512 610.431 621.188 42.236 51.1 -65.4095 138.835
513 610.531 621.183 42.2322 51.2 -69.4917 68.1184
514 610.631 621.178 42.2283 51.3 -66.227 -123.773
515 610.731 621.173 42.2245 51.4 -79.2076 -53.4813
516 610.831 621.169 42.2206 51.5 -69.199 -12.6583
517 610.93 621.164 42.2168 51.6 -72.9788 69.8606
518 611.03 621.159 42.213 51.7 -65.4547 136.182
519 611.13 621.154 42.2091 51.8 -73.4749 -83.1133
520 611.23 621.149 42.2053 51.9 -64.1139 -107.476
521 611.33 621.144 42.2015 52 -66.591 56.1013
522 611.43 621.14 42.1976 52.1 -68.2572 -0.514883
523 611.53 621.135 42.1938 52.2 -68.5284 -170.23
524 611.63 621.13 42.1899 52.3 -71.7403 63.3454
525 611.73 621.125 42.1861 52.4 -75.8638 -37.2083
526 611.829 621.12 42.1823 52.5 -65.5923 124.038
527 611.929 621.115 42.1784 52.6 -70.3737 -88.4323
528 612.029 621.111 42.1746 52.7 -64.8088 -160.966
529 612.129 621.106 42.1708 52.8 -63.7217 -1.65798
530 612.229 621.101 42.1669 52.9 -72.4732 -122.412
531 612.329 621.096 42.1631 53 -67.0898 79.1831
532 612.429 621.091 42.1592 53.1 -69.1067 -123.639
533 612.529 621.086 42.1554 53.2 -79.9673 66.5554
534 612.629 621.081 42.1516 53.3 -66.1681 -61.4166
535 612.728 621.077 42.1477 53.4 -80.2839 98.4869
536 612.828 621.072 42.1439 53.5 -69.8109 -57.19
537 612.928 621.067 42.14 53.6 -72.967 -0.431677
538 613.028 621.062 42.1362 53.7 -73.6573 -80.5351
539 613.128 621.057 42.1324 53.8 -71.5952 29.3968
540 613.228 621.052 42.1285 53.9 -75.5662 -41.8867
541 613.328 621.048 42.1247 54 -72.8681 -5.60553
542 613.428 621.043 42.1209 54.1 -82.2626 -54.6966
543 613.527 621.038 42.117 54.2 -73.4191 -23.8709
544 613.627 621.033 42.1132 54.3 -69.6088 -45.0312
545 613.727 621.028 42.1093 54.4 -70.4271 -110.088
546 613.827 621.023 42.1055 54.5 -68.8331 -30.949
547 613.927 621.019 42.1017 54.6 -67.8669 -110.992
548 614.027 621.014 42.0978 54.7 -70.4417 -78.5029
549 614.127 621.009 42.094 54.8 -69.6039 154.47
550 614.227 621.004 42.0902 54.9 -68.9094 -78.1293
551 614.327 620.999 42.0863 55 -64.5492 129.857
552 614.426 620.994 42.0825 55.1 -76.3977 -167.11
553 614.526 620.99 42.0786 55.2 -64.2634 63.3473
554 614.626 620.985 42.0748 55.3 -70.8259 -147.554
555 614.726 620.98 42.071 55.4 -63.6466 23.5742
556 614.826 620.975 42.0671 55.5 -70.7465 -130.233
557 614.926 620.97 42.0633 55.6 -67.5073 -71.6882
558 615.026 620.965 42.0595 55.7 -66.3471 133.917
559 615.126 620.961 42.0556 55.8 -71.6453 -116.229
560 615.225 620.956 42.0518 55.9 -65.0006 76.1719
561 615.325 620.951 42.0479 56 -79.2079 -41.7962
562 615.425 620.946 42.0441 56.1 -65.7041 -26.4635
563 615.525 620.941 42.0403 56.2 -69.8484 -156.922
564 615.625 620.936 42.0364 56.3 -73.2478 -102.58
565 615.725 620.932 42.0326 56.4 -69.4892 104.207
566 615.825 620.927 42.0288 56.5 -82.5034 -61.0274
567 615.925 620.922 42.0249 56.6 -69.9395 -10.8036
568 616.025 620.917 42.0211 56.7 -69.9485 -158.164
569 616.124 620.912 42.0172 56.8 -78.7671 -124.712
570 616.224 620.907 42.0134 56.9 -67.8692 71.8301
571 616.324 620.903 42.0096 57 -76.8768 -102.114
572 616.424 620.898 42.0057 57.1 -73.938 -62.0544
573 616.524 620.893 42.0019 57.2 -68.9988 94.5783
574 616.624 620.888 41.998 57.3 -78.8995 -97.9148
575 616.724 620.883 41.9942 57.4 -70.6073 -40.0999
576 616.824 620.878 41.9904 57.5 -76.1345 67.1729
577 616.923 620.874 41.9865 57.6 -72.557 -162.311
578 617.023 620.869 41.9827 57.7 -73.4405 -72.4626
579 617.123 620.864 41.9789 57.8 -75.4228 13.0939
580 617.223 620.859 41.975 57.9 -67.0618 152.55
581 617.323 620.854 41.9712 58 -78.4224 -92.2906
582 617.423 620.849 41.9673 58.1 -70.2656 -36.1139
583 617.523 620.845 41.9635 58.2 -65.2979 103.922
584 617.623 620.84 41.9597 58.3 -72.2786 -116.135
585 617.723 620.835 41.9558 58.4 -70.2127 -91.0992
586 617.822 620.83 41.952 58.5 -64.7007 49.7624
587 617.922 620.825 41.9482 58.6 -70.9596 -169.387
588 618.022 620.82 41.9443 58.7 -72.5767 -130.954
589 618.122 620.816 41.9405 58.8 -65.5288 -14.2253
590 618.222 620.811 41.9366 58.9 -69.4527 139.476
591 618.322 620.806 41.9328 59 -73.3329 168.111
592 618.422 620.801 41.929 59.1 -68.8545 -75.2908
593 618.522 620.796 41.9251 59.2 -68.1948 61.725
594 618.621 620.791 41.9213 59.3 -81.4448 81.9235
595 618.721 620.787 41.9175 59.4 -66.8194 -142.471
596 618.821 620.782 41.9136 59.5 -67.8091 -8.37953
597 618.921 620.777 41.9098 59.6 -78.585 90.8098
598 619.021 620.772 41.9059 59.7 -66.5543 111.885
599 619.121 620.767 41.9021 59.8 -65.1766 -116.591
600 619.221 620.762 41.8983 59.9 -74.4877 -56.5097
601 619.321 620.758 41.8944 60 -66.3454 3.82055
602 619.421 620.753 41.8906 60.1 -65.8258 111.947
603 619.52 620.748 41.8868 60.2 -74.1467 -164.826
604 619.62 620.743 41.8829 60.3 -66.2759 -135.819
605 619.72 620.738 41.8791 60.4 -67.9732 -34.0378
606 619.82 620.733 41.8752 60.5 -70.2945 17.8336
607 619.92 620.729 41.8714 60.6 -69.6598 57.1231
608 620.02 620.724 41.8676 60.7 -68.1923 150.888
609 620.12 620.719 41.8637 60.8 -71.9511 -150.15
610 620.22 620.714 41.8599 60.9 -76.977 -129.218
611 620.32 620.709 41.856 61 -68.049 -56.6027
612 620.419 620.704 41.8522 61.1 -75.3065 55.6081
613 620.519 620.7 41.8484 61.2 -72.5935 -20.5483
614 620.619 620.695 41.8445 61.3 -68.4414 103.723
615 620.719 620.69 41.8407 61.4 -85.2184 -94.6966
616 620.819 620.685 41.8369 61.5 -70.7127 140.356
617 620.919 620.68 41.833 61.6 -70.4919 -99.2863
618 621.019 620.675 41.8292 61.7 -78.8298 139.503
619 621.119 620.671 41.8253 61.8 -74.7175 -43.9427
620 621.218 620.666 41.8215 61.9 -99.0612 -10.0353
621 621.318 620.661 41.8177 62 -81.4441 129.915
622 621.418 620.656 41.8138 62.1 -86.2799 -96.5765
623 621.518 620.651 41.81 62.2 -77.473 -85.3373
624 621.618 620.646 41.8062 62.3 -73.7201 -79.2756
625 621.718 620.642 41.8023 62.4 -70.842 22.369
626 621.818 620.637 41.7985 62.5 -70.3553 -29.7991
627 621.918 620.632 41.7946 62.6 -66.4683 72.7499
628 622.018 620.627 41.7908 62.7 -77.4431 59.7485
629 622.117 620.622 41.787 62.8 -65.3883 97.5138
630 622.217 620.617 41.7831 62.9 -67.3939 -174.031
631 622.317 620.612 41.7793 63 -72.4611 119.495
632 622.417 620.608 41.7755 63.1 -64.6188 -156.871
633 622.517 620.603 41.7716 63.2 -69.4356 -69.9223
634 622.617 620.598 41.7678 63.3 -71.3481 -131.643
635 622.717 620.593 41.7639 63.4 -66.055 -58.3492
636 622.817 620.588 41.7601 63.5 -67.8554 -12.3335
637 622.916 620.583 41.7563 63.6 -73.8692 -23.6213
638 623.016 620.579 41.7524 63.7 -64.5424 -0.88254
639 623.116 620.574 41.7486 63.8 -69.7515 44.5036
640 623.216 620.569 41.7448 63.9 -68.9779 16.5085
641 623.316 620.564 41.7409 64 -68.8081 37.9836
642 623.416 620.559 41.7371 64.1 -73.4259 43.8188
643 623.516 620.554 41.7332 64.2 -75.341 82.3391
644 623.616 620.55 41.7294 64.3 -77.0202 -13.7003
645 623.716 620.545 41.7256 64.4 -72.4719 98.8373
646 623.815 620.54 41.7217 64.5 -75.8248 -143.587
647 623.915 620.535 41.7179 64.6 -79.15 70.4305
648 624.015 620.53 41.714 64.7 -73.1822 171.301
649 624.115 620.525 41.7102 64.8 -85.2482 118.201
650 624.215 620.521 41.7064 64.9 -77.3101 174.08
651 624.315 620.516 41.7025 65 -76.1279 22.7174
652 624.415 620.511 41.6987 65.1 -76.2058 -179.757
653 624.515 620.506 41.6949 65.2 -71.7202 -34.6735
654 624.614 620.501 41.691 65.3 -71.8779 171.395
655 624.714 620.496 41.6872 65.4 -73.9068 -84.4936
656 624.814 620.492 41.6833 65.5 -72.8029 135.808
657 624.914 620.487 41.6795 65.6 -77.5764 164.804
658 625.014 620.482 41.6757 65.7 -77.647 72.4499
659 625.114 620.477 41.6718 65.8 -74.4335 60.0083
660 625.214 620.472 41.668 65.9 -76.0106 68.0386
661 625.314 620.467 41.6642 66 -80.5453 102.993
662 625.414 620.463 41.6603 66.1 -70.7536 19.3776
663 625.513 620.458 41.6565 66.2 -68.0117 64.0311
664 625.613 620.453 41.6526 66.3 -74.4947 -21.2969
665 625.713 620.448 41.6488 66.4 -65.6881 -31.9837
666 625.813 620.443 41.645 66.5 -68.7892 -31.5911
667 625.913 620.438 41.6411 66.6 -73.81 -99.8084
668 626.013 620.434 41.6373 66.7 -67.1668 -94.9324
669 626.113 620.429 41.6335 66.8 -67.1795 -93.4332
670 626.213 620.424 41.6296 66.9 -71.9505 -116.376
671 626.312 620.419 41.6258 67 -65.5545 170.843
672 626.412 620.414 41.6219 67.1 -66.9355 -179.944
673 626.512 620.409 41.6181 67.2 -75.9637 99.7237
674 626.612 620.405 41.6143 67.3 -68.6613 86.4905
675 626.712 620.4 41.6104 67.4 -68.8783 97.9752
676 626.777 620.329 41.6123 67.5 -68.1116 151.583
677 626.838 620.25 41.6149 67.6 -70.7126 134.414
678 626.899 620.17 41.6175 67.7 -72.0802 160.719
679 626.96 620.091 41.6201 67.8 -71.7557 -152.644
680 627.021 620.012 41.6227 67.9 -71.9352 -131.448
681 627.081 619.932 41.6253 68 -72.5041 -143.15
682 627.142 619.853 41.6279 68.1 -73.5579 -173.432
683 627.203 619.773 41.6305 68.2 -83.3945 43.4099
684 627.264 619.694 41.6331 68.3 -69.6639 -22.4634
685 627.325 619.615 41.6357 68.4 -70.1229 -65.7118
686 627.386 619.535 41.6384 68.5 -70.6266 -151.066
687 627.446 619.456 41.641 68.6 -69.503 178.465
688 627.507 619.377 41.6436 68.7 -71.6406 -172.081
689 627.568 619.297 41.6462 68.8 -70.3765 171.414
690 627.629 619.218 41.6488 68.9 -67.088 131.143
691 627.69 619.138 41.6514 69 -68.2051 104.209
692 627.75 619.059 41.654 69.1 -72.6516 79.0095
693 627.811 618.98 41.6566 69.2 -71.0659 40.9825
694 627.872 618.9 41.6592 69.3 -67.695 -3.13467
695 627.933 618.821 41.6618 69.4 -66.4214 -53.957
696 627.994 618.741 41.6644 69.5 -69.2892 -103.491
697 628.055 618.662 41.667 69.6 -81.5207 -163.22
698 628.115 618.583 41.6696 69.7 -79.3255 36.5112
699 628.176 618.503 41.6722 69.8 -74.4172 -26.5895
700 628.237 618.424 41.6749 69.9 -82.7613 153.45
701 628.298 618.345 41.6775 70 -82.9743 148.947
702 628.359 618.265 41.6801 70.1 -71.9098 -166.885
703 628.419 618.186 41.6827 70.2 -71.0808 146.385
704 628.48 618.106 41.6853 70.3 -79.8169 25.0411
705 628.541 618.027 41.6879 70.4 -71.7599 -76.2291
706 628.602 617.948 41.6905 70.5 -72.9368 -129.175
707 628.663 617.868 41.6931 70.6 -74.9728 153.064
708 628.724 617.789 41.6955 70.7 -78.5872 79.1889
709 628.784 617.71 41.6947 70.8 -78.8984 -52.2715
710 628.845 617.63 41.6939 70.9 -80.5159 -121.791
711 628.906 617.551 41.6931 71 -82.7198 -50.3496
712 628.967 617.471 41.6923 71.1 -83.4885 -38.2205
713 629.028 617.392 41.6914 71.2 -76.1629 -2.19929
714 629.088 617.313 41.6906 71.3 -77.3687 -6.98178
715 629.149 617.233 41.6898 71.4 -76.7361 -2.13526
716 629.21 617.154 41.689 71.5 -82.3387 47.7073
717 629.271 617.075 41.6882 71.6 -76.1013 79.6425
718 629.332 616.995 41.6874 71.7 -75.5351 87.1067
719 629.393 616.916 41.6865 71.8 -78.9311 136.507
720 629.453 616.836 41.6857 71.9 -69.8496 147.317
721 629.514 616.757 41.6849 72 -68.6342 112.88
722 629.575 616.678 41.6841 72.1 -74.5301 68.7995
723 629.636 616.598 41.6833 72.2 -78.1846 -128.104
724 629.697 616.519 41.6825 72.3 -70.9739 172.271
725 629.757 616.439 41.6816 72.4 -74.8877 106.615
726 629.818 616.36 41.6808 72.5 -77.4367 -71.9877
727 629.879 616.281 41.68 72.6 -70.3162 -147.661
728 629.94 616.201 41.6792 72.7 -72.9022 164.101
729 630.001 616.122 41.6784 72.8 -86.8526 64.8617
730 630.062 616.043 41.6776 72.9 -73.8574 -89.9275
731 630.122 615.963 41.6768 73 -73.576 -126.444
732 630.183 615.884 41.6759 73.1 -76.1653 -93.9758
733 630.244 615.804 41.6751 73.2 -73.5169 -85.9038
734 630.305 615.725 41.6743 73.3 -75.1811 -89.3085
735 630.366 615.646 41.6735 73.4 -75.7435 -56.6952
736 630.426 615.566 41.6727 73.5 -73.1459 -76.7317
737 630.487 615.487 41.6719 73.6 -78.8618 -113.875
738 630.548 615.408 41.671 73.7 -85.8072 29.4518
739 630.609 615.328 41.6702 73.8 -76.9949 -13.6588
740 630.67 615.249 41.6694 73.9 -78.9846 -65.4701
741 630.731 615.169 41.6686 74 -84.0746 112.061
742 630.791 615.09 41.6678 74.1 -73.3513 31.5966
743 630.852 615.011 41.667 74.2 -70.4526 -15.6335
744 630.913 614.931 41.6661 74.3 -72.427 -73.9324
745 630.974 614.852 41.6653 74.4 -84.3998 167.076
746 631.035 614.772 41.6645 74.5 -76.6122 33.362
747 631.095 614.693 41.6637 74.6 -75.7601 -36.8087
748 631.156 614.614 41.6629 74.7 -74.7393 -172.198
749 631.217 614.534 41.6621 74.8 -70.9708 108.37
750 631.278 614.455 41.6613 74.9 -72.2633 54.2057
751 631.339 614.376 41.6604 75 -83.9452 -9.0714
752 631.4 614.296 41.6596 75.1 -79.3053 116.601
753 631.46 614.217 41.6588 75.2 -81.1408 79.9437
754 631.521 614.137 41.658 75.3 -95.2564 166.699
755 631.582 614.058 41.6572 75.4 -79.2566 129.952
756 631.643 613.979 41.6564 75.5 -79.4556 46.3194
757 631.704 613.899 41.6555 75.6 -88.1946 10.0859
758 631.764 613.82 41.6547 75.7 -81.2708 103.379
759 631.825 613.741 41.6539 75.8 -74.9737 40.0014
760 631.886 613.661 41.6531 75.9 -77.56 -42.7072
761 631.947 613.582 41.6523 76 -78.7002 -160.265
762 632.008 613.502 41.6515 76.1 -73.7162 94.7058
763 632.069 613.423 41.6506 76.2 -75.7723 23.469
764 632.129 613.344 41.6498 76.3 -78.4055 -103.083
765 632.19 613.264 41.649 76.4 -72.0676 160.335
766 632.251 613.185 41.6482 76.5 -72.5986 103.631
767 632.312 613.105 41.6474 76.6 -75.5792 26.1384
768 632.373 613.026 41.6466 76.7 -83.4575 -80.3389
769 632.433 612.947 41.6458 76.8 -80.1624 151.672
770 632.494 612.867 41.6449 76.9 -76.8535 63.1995
771 632.555 612.788 41.6441 77 -78.3453 -24.2257
772 632.616 612.709 41.6433 77.1 -75.6517 -122.222
773 632.677 612.629 41.6425 77.2 -73.5373 178.641
774 632.738 612.55 41.6417 77.3 -80.7111 101.529
775 632.798 612.47 41.6409 77.4 -83.704 74.478
776 632.859 612.391 41.64 77.5 -76.8388 129.887
777 632.92 612.312 41.6392 77.6 -77.4794 143.144
778 632.981 612.232 41.6384 77.7 -76.6753 178.251
779 633.042 612.153 41.6376 77.8 -76.005 143.274
780 633.102 612.074 41.6368 77.9 -80.715 108.529
781 633.163 611.994 41.636 78 -74.4697 -173.776
782 633.224 611.915 41.6352 78.1 -68.639 159.312
783 633.285 611.835 41.6343 78.2 -73.7743 115.533
784 633.346 611.756 41.6335 78.3 -76.9128 -71.4153
785 633.407 611.677 41.6327 78.4 -71.5655 -147.546
786 633.467 611.597 41.6319 78.5 -71.3608 129.66
787 633.528 611.518 41.6311 78.6 -76.9077 55.5686
788 633.589 611.439 41.6303 78.7 -74.7891 -138.018
789 633.65 611.359 41.6294 78.8 -69.3741 169.272
790 633.711 611.28 41.6286 78.9 -73.3952 125.356
791 633.771 611.2 41.6278 79 -86.4002 95.3412
792 633.832 611.121 41.627 79.1 -85.1634 157.916
793 633.893 611.042 41.6262 79.2 -81.5348 134.601
794 633.954 610.962 41.6254 79.3 -83.3301 124.638
795 634.001 610.876 41.6253 79.4 -84.4991 88.6321
796 634.029 610.78 41.6262 79.5 -80.0855 -154.362
797 634.057 610.684 41.6271 79.6 -80.4613 -6.97341
798 634.085 610.588 41.628 79.7 -76.8588 -76.203
799 634.113 610.492 41.6289 79.8 -76.5361 175.881
800 634.142 610.396 41.6298 79.9 -76.2769 44.5473
801 634.17 610.3 41.6307 80 -86.254 -81.4549
802 634.198 610.204 41.6316 80.1 -76.0131 108.144
803 634.226 610.108 41.6325 80.2 -89.6549 154.002
804 634.255 610.012 41.6333 80.3 -76.672 7.8459
805 634.283 609.916 41.6342 80.4 -73.082 -105.958
806 634.311 609.82 41.6351 80.5 -73.5267 126.839
807 634.339 609.724 41.636 80.6 -71.3336 -38.2262
808 634.367 609.629 41.6369 80.7 -72.4402 -165.804
809 634.396 609.533 41.6378 80.8 -70.5226 58.2412
810 634.424 609.437 41.6387 80.9 -78.2144 -103.164
811 634.452 609.341 41.6396 81 -78.6036 34.8696
812 634.48 609.245 41.6405 81.1 -78.5397 -116.365
813 634.509 609.149 41.6414 81.2 -74.3812 82.9405
814 634.537 609.053 41.6423 81.3 -73.2723 -98.6763
815 634.565 608.957 41.6432 81.4 -72.9729 138.392
816 634.593 608.861 41.6441 81.5 -73.1149 -9.628
817 634.621 608.765 41.645 81.6 -84.9297 -149.477
818 634.65 608.669 41.6459 81.7 -86.2968 28.4982
819 634.678 608.573 41.6468 81.8 -80.1825 -167.187
820 634.706 608.477 41.6477 81.9 -73.8834 -19.3719
821 634.734 608.381 41.6486 82 -74.6761 139.282
822 634.763 608.285 41.6495 82.1 -73.9281 66.1698
823 634.791 608.189 41.6504 82.2 -72.5262 -124.519
824 634.819 608.094 41.6513 82.3 -85.7912 44.2137
825 634.847 607.998 41.6522 82.4 -91.396 -145.339
826 634.875 607.902 41.6531 82.5 -78.3741 79.6036
827 634.904 607.806 41.654 82.6 -71.764 -109.632
828 634.932 607.71 41.6548 82.7 -78.6832 65.0311
829 634.96 607.614 41.6557 82.8 -72.1109 -29.0958
830 634.988 607.518 41.6566 82.9 -71.8633 136.157
831 635.016 607.422 41.6575 83 -92.761 50.4118
832 635.045 607.326 41.6584 83.1 -87.3146 -76.6692
833 635.073 607.23 41.6593 83.2 -80.1355 -89.7633
834 635.101 607.134 41.6602 83.3 -70.6751 74.5845
835 635.129 607.038 41.6611 83.4 -72.751 -108.277
836 635.158 606.942 41.662 83.5 -70.4164 136.574
837 635.186 606.846 41.6629 83.6 -69.264 -54.4358
838 635.214 606.75 41.6638 83.7 -79.2562 117.455
839 635.242 606.655 41.6647 83.8 -77.5728 -21.1628
840 635.27 606.559 41.6656 83.9 -75.0492 104.677
841 635.299 606.463 41.6665 84 -74.4941 -114.163
842 635.327 606.367 41.6674 84.1 -78.9758 36.0229
843 635.355 606.271 41.6683 84.2 -79.5207 -92.0544
844 635.383 606.175 41.6692 84.3 -73.6711 44.472
845 635.412 606.079 41.6701 84.4 -74.8532 173.085
846 635.44 605.983 41.671 84.5 -77.8354 48.6943
847 635.468 605.887 41.6719 84.6 -69.5215 -160.086
848 635.496 605.791 41.6728 84.7 -72.7075 5.06875
849 635.524 605.695 41.6737 84.8 -74.7487 -108.916
850 635.553 605.599 41.6746 84.9 -81.9655 94.0179
851 635.581 605.503 41.6755 85 -73.1911 15.2394
852 635.609 605.407 41.6763 85.1 -76.2916 -145.672
853 635.637 605.311 41.6772 85.2 -71.973 99.9798
854 635.665 605.215 41.6781 85.3 -72.7286 -63.5873
855 635.694 605.12 41.679 85.4 -75.7745 158.136
856 635.722 605.024 41.6799 85.5 -77.5391 11.9348
857 635.75 604.928 41.6808 85.6 -83.3633 -103.279
858 635.778 604.832 41.6817 85.7 -78.8146 147.73
859 635.807 604.736 41.6826 85.8 -72.909 37.0938
860 635.835 604.64 41.6835 85.9 -82.5737 -140.902
861 635.863 604.544 41.6844 86 -79.8733 137.618
862 635.891 604.448 41.6853 86.1 -76.8676 -165.554
863 635.919 604.352 41.6862 86.2 -78.1282 -130.531
864 635.948 604.256 41.6871 86.3 -77.9456 3.03809
865 635.976 604.16 41.688 86.4 -73.0321 -97.6419
866 636.004 604.064 41.6889 86.5 -82.0836 61.45
867 636.032 603.968 41.6898 86.6 -80.2354 9.56754
868 636.061 603.872 41.6907 86.7 -79.634 20.6615
869 636.089 603.776 41.6916 86.8 -97.7972 57.7677
870 636.117 603.68 41.6925 86.9 -80.3204 176.318
871 636.145 603.585 41.6934 87 -74.9623 42.4051
872 636.173 603.489 41.6943 87.1 -89.1572 -54.3167
873 636.202 603.393 41.6952 87.2 -79.8597 56.255
874 636.23 603.297 41.6961 87.3 -71.907 139.625
875 636.258 603.201 41.697 87.4 -84.6073 145.102
876 636.286 603.105 41.6978 87.5 -84.2712 151.917
877 636.315 603.009 41.6987 87.6 -74.693 -139.252
878 636.343 602.913 41.6996 87.7 -76.646 -116.94
879 636.371 602.817 41.7005 87.8 -74.1223 73.6037
880 636.399 602.721 41.7014 87.9 -70.0679 -87.3302
881 636.427 602.625 41.7023 88 -77.1029 69.8624
882 636.456 602.529 41.7032 88.1 -92.6484 104.547
883 636.484 602.433 41.7041 88.2 -74.6099 159.395
884 636.512 602.337 41.705 88.3 -72.9223 20.9909
885 636.54 602.241 41.7059 88.4 -67.6151 -159.42
886 636.568 602.146 41.7068 88.5 -88.1154 117.135
887 636.597 602.05 41.7077 88.6 -82.65 -130.052
888 636.625 601.954 41.7086 88.7 -77.6821 -167.638
889 636.653 601.858 41.7095 88.8 -74.2979 -87.5604
890 636.681 601.762 41.7104 88.9 -75.3345 160.123
891 636.71 601.666 41.7113 89 -83.9246 -134.135
892 636.738 601.57 41.7122 89.1 -76.9181 -55.5156
893 636.766 601.474 41.7131 89.2 -75.2745 -169.312
894 636.794 601.378 41.714 89.3 -96.6791 90.4887
895 636.822 601.282 41.7149 89.4 -81.645 9.56267
896 636.851 601.186 41.7158 89.5 -73.5063 80.0736
897 636.879 601.09 41.7167 89.6 -76.4219 -122.152
898 636.907 600.994 41.7176 89.7 -70.1322 87.7808
899 636.935 600.898 41.7185 89.8 -76.7444 45.5808
900 636.964 600.802 41.7194 89.9 -77.6993 -163.981
901 636.992 600.706 41.7202 90 -75.291 -55.43
902 637.02 600.611 41.7211 90.1 -72.4496 141.663
903 637.048 600.515 41.722 90.2 -84.1355 -9.36895
904 637.076 600.419 41.7229 90.3 -82.9525 -71.9123
905 637.105 600.323 41.7238 90.4 -90.7159 52.6666
906 637.133 600.227 41.7247 90.5 -77.595 177.366
907 637.161 600.131 41.7256 90.6 -76.4523 -16.8305
908 637.189 600.035 41.7265 90.7 -93.5244 138.694
909 637.217 599.939 41.7274 90.8 -77.1096 -163.875
910 637.246 599.843 41.7283 90.9 -82.7881 -67.9841
911 637.274 599.747 41.7292 91 -73.6128 15.1896
912 637.302 599.651 41.7301 91.1 -80.5605 154.611
913 637.33 599.555 41.731 91.2 -74.4667 -139.852
914 637.359 599.459 41.7319 91.3 -77.1027 -17.2127
915 637.387 599.363 41.7328 91.4 -74.931 43.9243
916 637.415 599.267 41.7337 91.5 -77.2017 153.662
917 637.443 599.171 41.7346 91.6 -73.124 -123.89
918 637.471 599.076 41.7355 91.7 -79.2264 21.0127
919 637.5 598.98 41.7364 91.8 -75.5192 47.6991
920 637.528 598.884 41.7373 91.9 -81.1374 -176.882
921 637.556 598.788 41.7382 92 -73.3729 -114.147
922 637.584 598.692 41.7391 92.1 -75.4483 46.9788
923 637.613 598.596 41.74 92.2 -78.484 16.8281
924 637.641 598.5 41.7409 92.3 -73.6478 176.723
925 637.669 598.404 41.7417 92.4 -81.7733 -53.6233
926 637.697 598.308 41.7426 92.5 -78.9716 19.0242
927 637.725 598.212 41.7435 92.6 -73.7402 64.2283
928 637.754 598.116 41.7444 92.7 -73.6753 -155.336
929 637.758 598.018 41.7464 92.8 -78.2601 120.116
930 637.752 597.918 41.7488 92.9 -76.5351 -33.3274
931 637.746 597.818 41.7512 93 -79.4101 -74.0237
932 637.74 597.718 41.7536 93.1 -70.8407 -166.68
933 637.734 597.618 41.756 93.2 -71.3134 122.83
934 637.728 597.518 41.7584 93.3 -70.7182 42.6825
935 637.722 597.419 41.7608 93.4 -71.8234 -5.65324
936 637.716 597.319 41.7632 93.5 -76.5644 -123.261
937 637.71 597.219 41.7656 93.6 -76.7889 -63.7874
938 637.704 597.119 41.768 93.7 -89.0761 149.969
939 637.698 597.019 41.7704 93.8 -81.0908 147.343
940 637.693 596.919 41.7728 93.9 -75.125 -3.51291
941 637.687 596.82 41.7752 94 -72.9568 -117.306
942 637.681 596.72 41.7776 94.1 -72.03 164.03
943 637.675 596.62 41.78 94.2 -77.6084 52.0638
944 637.669 596.52 41.7824 94.3 -78.898 167.912
945 637.663 596.42 41.7848 94.4 -77.7987 94.4243
946 637.657 596.321 41.7872 94.5 -73.6183 -16.084
947 637.651 596.221 41.7896 94.6 -77.5035 150.489
948 637.645 596.121 41.792 94.7 -71.6233 -21.4455
949 637.639 596.021 41.7944 94.8 -77.8785 -152.976
950 637.633 595.921 41.7968 94.9 -78.5592 61.6397
951 637.627 595.821 41.7992 95 -69.03 -108.121
952 637.621 595.722 41.8016 95.1 -73.265 83.389
953 637.615 595.622 41.804 95.2 -79.6741 -117.516
954 637.609 595.522 41.8064 95.3 -73.0433 138.197
955 637.603 595.422 41.8088 95.4 -74.8653 -25.9954
956 637.598 595.322 41.8112 95.5 -72.41 117.188
957 637.592 595.222 41.8136 95.6 -73.6936 -36.9822
958 637.586 595.123 41.816 95.7 -75.2658 126.513
959 637.58 595.023 41.8184 95.8 -70.1229 -32.1244
960 637.574 594.923 41.8208 95.9 -72.0482 136.781
961 637.568 594.823 41.8232 96 -70.671 -70.9026
962 637.562 594.723 41.8256 96.1 -73.7553 112.407
963 637.556 594.624 41.828 96.2 -71.4121 -116.227
964 637.55 594.524 41.8304 96.3 -72.1825 57.4533
965 637.544 594.424 41.8327 96.4 -70.7021 -161.589
966 637.538 594.324 41.8351 96.5 -69.0571 28.4223
967 637.532 594.224 41.8375 96.6 -70.6671 178.98
968 637.526 594.124 41.8399 96.7 -73.3465 8.82121
969 637.52 594.025 41.8423 96.8 -76.7059 138.776
970 637.514 593.925 41.8447 96.9 -73.0073 -29.6827
971 637.508 593.825 41.8471 97 -76.4838 129.472
972 637.503 593.725 41.8495 97.1 -87.8929 -175.024
973 637.497 593.625 41.8519 97.2 -92.5971 -49.5024
974 637.491 593.525 41.8543 97.3 -81.0171 8.26348
975 637.485 593.426 41.8567 97.4 -78.1895 -154.516
976 637.479 593.326 41.8591 97.5 -71.399 8.21661
977 637.473 593.226 41.8615 97.6 -72.9509 142.721
978 637.467 593.126 41.8639 97.7 -74.47 -72.4428
979 637.461 593.026 41.8663 97.8 -72.6923 79.3384
980 637.455 592.927 41.8687 97.9 -71.2773 -142.471
981 637.449 592.827 41.8711 98 -73.9395 -13.9139
982 637.443 592.727 41.8735 98.1 -80.4096 155.19
983 637.437 592.627 41.8759 98.2 -77.5579 -64.9032
984 637.431 592.527 41.8783 98.3 -82.0628 3.26731
985 637.425 592.427 41.8807 98.4 -86.4346 61.7819
986 637.419 592.328 41.8831 98.5 -78.5576 107.932
987 637.413 592.228 41.8855 98.6 -75.6887 -164.595
988 637.408 592.128 41.8879 98.7 -79.1248 -3.41983
989 637.402 592.028 41.8903 98.8 -75.4828 141.705
990 637.396 591.928 41.8927 98.9 -82.1888 -149.394
991 637.39 591.828 41.8951 99 -81.4795 -142.546
992 637.384 591.729 41.8975 99.1 -78.0874 -62.2095
993 637.378 591.629 41.8999 99.2 -76.0034 3.56604
994 637.372 591.529 41.9023 99.3 -71.3014 92.0417
995 637.366 591.429 41.9047 99.4 -69.3598 -158.098
996 637.36 591.329 41.9071 99.5 -72.4213 -56.3601
997 637.354 591.23 41.9095 99.6 -88.2267 48.1226
998 637.348 591.13 41.9119 99.7 -82.629 10.0596
999 637.342 591.03 41.9143 99.8 -74.5847 97.9761
1000 637.336 590.93 41.9167 99.9 -72.0357 172.808
1001 637.33 590.83 41.9191 100 -71.7704 -120.337
1002 637.324 590.73 41.9215 100.1 -72.2818 -73.8849
1003 637.318 590.631 41.9239 100.2 -73.5637 -16.7782
1004 637.312 590.531 41.9263 100.3 -87.3424 55.0994
1005 637.307 590.431 41.9287 100.4 -75.1856 -30.635
1006 637.301 590.331 41.9311 100.5 -67.9385 53.7197
1007 637.295 590.231 41.9335 100.6 -68.7105 126.319
1008 637.289 590.131 41.9359 100.7 -73.7598 168.787
1009 637.283 590.032 41.9383 100.8 -72.1675 -156.97
1010 637.277 589.932 41.9407 100.9 -73.7416 -103.119
1011 637.271 589.832 41.9431 101 -88.0353 -163.4
1012 637.265 589.732 41.9455 101.1 -72.603 -139.46
1013 637.259 589.632 41.9479 101.2 -68.7678 -76.2457
1014 637.253 589.533 41.9503 101.3 -70.634 -22.4717
1015 637.247 589.433 41.9527 101.4 -75.2271 2.25987
1016 637.241 589.333 41.9551 101.5 -75.8834 3.95041
1017 637.235 589.233 41.9575 101.6 -92.9909 -15.7593
1018 637.229 589.133 41.9599 101.7 -73.0026 -53.4553
1019 637.223 589.033 41.9623 101.8 -68.3755 -8.76104
1020 637.217 588.934 41.9647 101.9 -71.3358 32.0615
1021 637.212 588.834 41.9671 102 -83.5533 66.7199
1022 637.206 588.734 41.9695 102.1 -77.6048 -48.3101
1023 637.2 588.634 41.9719 102.2 -75.4366 -26.175
1024 637.194 588.534 41.9743 102.3 -83.1257 -23.0484
1025 637.188 588.434 41.9767 102.4 -77.2535 -27.8101
1026 637.182 588.335 41.9791 102.5 -78.5039 -65.1634
1027 637.176 588.235 41.9815 102.6 -78.8596 -113.443
1028 637.17 588.135 41.9839 102.7 -84.7974 -112.75
1029 637.164 588.035 41.9863 102.8 -73.6614 -100.824
1030 637.158 587.935 41.9887 102.9 -75.1391 -109.775
1031 637.152 587.836 41.9911 103 -88.4162 -106.97
1032 637.146 587.736 41.9935 103.1 -92.994 -12.8585
1033 637.14 587.636 41.9959 103.2 -80.9178 104.324
1034 637.134 587.536 41.9983 103.3 -76.3682 68.5951
1035 637.128 587.436 42.0007 103.4 -82.3934 96.7104
1036 637.122 587.336 42.0031 103.5 -77.3521 157.702
1037 637.117 587.237 42.0055 103.6 -79.8841 -170.862
1038 637.111 587.137 42.0079 103.7 -73.8144 -145.403
1039 637.105 587.037 42.0103 103.8 -78.5619 -118.263
1040 637.099 586.937 42.0127 103.9 -78.8089 -126.011
1041 637.093 586.837 42.0151 104 -80.4517 -89.316
1042 637.087 586.737 42.0175 104.1 -73.7663 -64.2952
1043 637.081 586.638 42.0199 104.2 -75.7747 -115.837
1044 637.075 586.538 42.0223 104.3 -78.5894 -48.0348
1045 637.069 586.438 42.0247 104.4 -67.4207 -52.3639
1046 637.063 586.338 42.0271 104.5 -80.5058 139.973
1047 637.057 586.238 42.0295 104.6 -70.8118 3.47384
1048 637.051 586.139 42.0319 104.7 -70.2534 -114.579
1049 637.045 586.039 42.0343 104.8 -74.0054 17.8944
1050 637.039 585.939 42.0367 104.9 -68.9278 -61.9268
1051 637.033 585.839 42.0391 105 -78.6847 97.1635
1052 637.027 585.739 42.0415 105.1 -71.6476 -58.4568
1053 637.021 585.639 42.0439 105.2 -70.7855 -146.343
1054 637.016 585.54 42.0463 105.3 -73.3213 -33.3683
1055 637.01 585.44 42.0487 105.4 -68.2869 -125.923
1056 637.004 585.34 42.0511 105.5 -72.0089 4.89135
1057 636.998 585.24 42.0535 105.6 -71.0697 -141.289
1058 636.992 585.14 42.0559 105.7 -71.0628 46.5679
1059 636.986 585.04 42.0583 105.8 -69.5828 170.312
1060 636.98 584.941 42.0607 105.9 -72.8059 110.529
1061 636.974 584.841 42.0631 106 -71.1726 -175.035
1062 636.968 584.741 42.0655 106.1 -82.391 21.5675
1063 636.962 584.641 42.0679 106.2 -71.0924 -142.088
1064 636.956 584.541 42.0703 106.3 -71.3669 3.67508
1065 636.95 584.442 42.0727 106.4 -75.8995 81.1284
1066 636.944 584.342 42.0751 106.5 -69.6351 -15.0658
1067 636.938 584.242 42.0775 106.6 -81.7943 77.9192
1068 636.932 584.142 42.0799 106.7 -74.0867 -123.684
1069 636.926 584.042 42.0822 106.8 -71.6901 106.203
1070 636.921 583.942 42.0846 106.9 -68.8546 153.805
1071 636.915 583.843 42.087 107 -82.8737 165.332
1072 636.909 583.743 42.0894 107.1 -77.7436 -179.891
1073 636.903 583.643 42.0918 107.2 -72.9521 -99.3678
1074 636.897 583.543 42.0942 107.3 -74.6233 -91.6769
1075 636.891 583.443 42.0966 107.4 -68.0096 -126.523
1076 636.885 583.343 42.099 107.5 -70.247 -137.05
1077 636.879 583.244 42.1014 107.6 -74.4246 -129.803
1078 636.873 583.144 42.1038 107.7 -66.5081 -71.4443
1079 636.867 583.044 42.1062 107.8 -65.7764 -69.3577
1080 636.861 582.944 42.1086 107.9 -71.2302 -128.863
1081 636.855 582.844 42.111 108 -69.8865 -128.424
1082 636.849 582.745 42.1134 108.1 -73.7302 -88.0508
1083 636.843 582.645 42.1158 108.2 -76.7562 -91.9071
1084 636.837 582.545 42.1182 108.3 -63.9039 -147.974
1085 636.831 582.445 42.1206 108.4 -63.9515 -157.765
1086 636.826 582.345 42.123 108.5 -69.8985 -174.504
1087 636.82 582.245 42.1254 108.6 -67.68 -130.14
1088 636.814 582.146 42.1278 108.7 -67.5445 -113.854
1089 636.808 582.046 42.1302 108.8 -77.3405 -69.4352
1090 636.802 581.946 42.1326 108.9 -72.6696 32.8626
1091 636.777 581.849 42.1357 109 -69.9019 74.3576
1092 636.75 581.753 42.1389 109.1 -74.065 -56.1393
1093 636.723 581.657 42.1421 109.2 -70.5911 166.569
1094 636.696 581.56 42.1453 109.3 -71.2304 -94.673
1095 636.669 581.464 42.1485 109.4 -64.2236 -106.774
1096 636.642 581.368 42.1517 109.5 -67.4229 -49.1524
1097 636.615 581.271 42.1549 109.6 -71.4437 -14.0858
1098 636.588 581.175 42.1581 109.7 -60.082 12.2361
1099 636.561 581.079 42.1613 109.8 -66.7762 -120.137
1100 636.534 580.983 42.1645 109.9 -61.8184 76.4778
1101 636.508 580.886 42.1677 110 -62.8327 -13.7667
1102 636.481 580.79 42.1709 110.1 -64.9449 133.108
1103 636.454 580.694 42.1741 110.2 -63.167 48.4679
1104 636.427 580.597 42.1773 110.3 -63.2391 -172.313
1105 636.4 580.501 42.1805 110.4 -62.9163 125.69
1106 636.373 580.405 42.1837 110.5 -63.214 -96.2984
1107 636.346 580.308 42.1869 110.6 -62.6947 177.396
1108 636.319 580.212 42.1901 110.7 -66.0053 -20.7811
1109 636.292 580.116 42.1933 110.8 -68.1486 -147.339
1110 636.265 580.019 42.1965 110.9 -65.7197 -8.3286
1111 636.238 579.923 42.1997 111 -66.687 -121.94
1112 636.211 579.827 42.2029 111.1 -63.8277 63.7785
1113 636.184 579.731 42.206 111.2 -60.4479 -103.916
1114 636.157 579.634 42.2092 111.3 -60.1188 101.474
1115 636.131 579.538 42.2124 111.4 -58.1868 -107.078
1116 636.104 579.442 42.2156 111.5 -63.7951 97.6187
1117 636.077 579.345 42.2188 111.6 -57.621 -135.733
1118 636.05 579.249 42.222 111.7 -65.657 -10.1318
1119 636.023 579.153 42.2252 111.8 -57.5185 -158.656
1120 635.996 579.056 42.2284 111.9 -59.9639 -41.596
1121 635.969 578.96 42.2316 112 -61.2031 177.172
1122 635.942 578.864 42.2348 112.1 -59.7877 -76.9846
1123 635.915 578.768 42.238 112.2 -73.6788 1.79824
1124 635.888 578.671 42.2412 112.3 -61.0253 -132.567
1125 635.861 578.575 42.2444 112.4 -61.6872 -52.8241
1126 635.834 578.479 42.2476 112.5 -63.3014 -177.013
1127 635.807 578.382 42.2508 112.6 -59.6609 -84.5579
1128 635.78 578.286 42.254 112.7 -68.7973 80.536
1129 635.753 578.19 42.2572 112.8 -58.2611 -161.965
1130 635.727 578.093 42.2604 112.9 -61.3971 -40.0274
1131 635.7 577.997 42.2636 113 -57.7749 104.107
1132 635.673 577.901 42.2668 113.1 -59.7105 -155.635
1133 635.646 577.804 42.27 113.2 -59.9731 -15.4954
1134 635.619 577.708 42.2732 113.3 -58.5979 59.9798
1135 635.592 577.612 42.2763 113.4 -61.0178 150.43
1136 635.565 577.516 42.2795 113.5 -62.2661 -104.534
1137 635.538 577.419 42.2827 113.6 -64.261 83.5889
1138 635.511 577.323 42.2859 113.7 -61.3678 153.226
1139 635.484 577.227 42.2891 113.8 -75.328 142.24
1140 635.457 577.13 42.2923 113.9 -64.7258 -59.0971
1141 635.43 577.034 42.2955 114 -56.9471 -34.5393
1142 635.403 576.938 42.2987 114.1 -64.4039 -74.6881
1143 635.376 576.841 42.3019 114.2 -55.0744 -123.77
1144 635.35 576.745 42.3051 114.3 -55.9762 -110.778
1145 635.323 576.649 42.3083 114.4 -60.0611 -74.6014
1146 635.296 576.552 42.3115 114.5 -68.5783 25.1394
1147 635.269 576.456 42.3147 114.6 -58.2551 150.724
1148 635.242 576.36 42.3179 114.7 -56.5651 -176.11
1149 635.215 576.264 42.3211 114.8 -62.4701 -173.323
1150 635.188 576.167 42.3243 114.9 -65.0099 168.195
1151 635.161 576.071 42.3275 115 -70.6633 -171.011
1152 635.134 575.975 42.3307 115.1 -63.1704 10.5007
1153 635.107 575.878 42.3339 115.2 -56.2817 10.1537
1154 635.08 575.782 42.3371 115.3 -61.0238 -4.45015
1155 635.053 575.686 42.3403 115.4 -63.6868 -151.556
1156 635.026 575.589 42.3435 115.5 -59.6441 178.683
1157 634.999 575.493 42.3466 115.6 -59.5593 121.244
1158 634.973 575.397 42.3498 115.7 -59.955 104.571
1159 634.946 575.301 42.353 115.8 -71.2118 -135.446
1160 634.919 575.204 42.3562 115.9 -58.8417 -116.663
1161 634.892 575.108 42.3594 116 -62.2268 -153.796
1162 634.865 575.012 42.3626 116.1 -65.8077 -154.462
1163 634.838 574.915 42.3658 116.2 -56.557 -140.391
1164 634.811 574.819 42.369 116.3 -55.3091 -173.512
1165 634.784 574.723 42.3722 116.4 -59.5562 129.117
1166 634.757 574.626 42.3754 116.5 -67.8494 175.587
1167 634.73 574.53 42.3786 116.6 -60.8968 -179.727
1168 634.703 574.434 42.3818 116.7 -75.2618 36.9528
1169 634.676 574.337 42.385 116.8 -66.252 -111.129
1170 634.649 574.241 42.3882 116.9 -58.5041 130.826
1171 634.622 574.145 42.3914 117 -60.1441 65.8858
1172 634.595 574.049 42.3946 117.1 -73.8329 51.4639
1173 634.569 573.952 42.3978 117.2 -58.8957 15.9871
1174 634.542 573.856 42.401 117.3 -59.227 -54.7748
1175 634.515 573.76 42.4042 117.4 -76.8787 66.7541
1176 634.488 573.663 42.4074 117.5 -68.1115 -139.9
1177 634.461 573.567 42.4106 117.6 -58.3507 122.115
1178 634.434 573.471 42.4138 117.7 -72.7303 72.596
1179 634.407 573.374 42.417 117.8 -65.0172 65.344
1180 634.38 573.278 42.4201 117.9 -62.2097 -80.8842
1181 634.353 573.182 42.4233 118 -72.2891 -175.935
1182 634.326 573.085 42.4265 118.1 -62.3102 177.696
1183 634.299 572.989 42.4297 118.2 -65.3046 22.0601
1184 634.272 572.893 42.4329 118.3 -63.6606 171.085
1185 634.245 572.797 42.4361 118.4 -70.8924 -87.4773
1186 634.218 572.7 42.4393 118.5 -59.9778 85.8469
1187 634.192 572.604 42.4425 118.6 -90.4349 -99.9153
1188 634.165 572.508 42.4457 118.7 -56.635 2.84073
1189 634.138 572.411 42.4489 118.8 -90.5883 73.952
1190 634.111 572.315 42.4521 118.9 -72.626 37.1052
1191 634.084 572.219 42.4553 119 -57.8365 1.92794
1192 634.057 572.122 42.4585 119.1 -61.2535 -79.3935
1193 634.03 572.026 42.4617 119.2 -57.5563 126.262
1194 634.003 571.93 42.4649 119.3 -63.6414 23.0888
1195 633.976 571.834 42.4681 119.4 -59.7233 -68.5446
1196 633.949 571.737 42.4713 119.5 -56.1547 97.117
1197 633.922 571.641 42.4745 119.6 -62.5113 48.1714
1198 633.895 571.545 42.4777 119.7 -68.0044 -89.0748
1199 633.868 571.448 42.4809 119.8 -68.3272 -26.2415
1200 633.841 571.352 42.4841 119.9 -63.3902 -74.1982
1201 633.815 571.256 42.4873 120 -62.1258 21.9921
1202 633.788 571.159 42.4904 120.1 -66.6264 -62.7749
1203 633.731 571.084 42.4944 120.2 -57.4752 169.034
1204 633.65 571.025 42.4991 120.3 -60.2733 86.57
1205 633.569 570.967 42.5037 120.4 -59.2868 -147.05
1206 633.487 570.909 42.5083 120.5 -58.1059 -34.4401
1207 633.406 570.85 42.513 120.6 -58.91 -114.664
1208 633.325 570.792 42.5176 120.7 -60.5503 90.3153
1209 633.244 570.734 42.5222 120.8 -65.635 155.8
1210 633.162 570.676 42.5269 120.9 -71.5361 105.65
1211 633.081 570.617 42.5315 121 -55.8275 -87.554
1212 633 570.559 42.5361 121.1 -61.6498 87.6161
1213 632.919 570.501 42.5408 121.2 -67.2593 174.83
1214 632.837 570.442 42.5454 121.3 -62.9519 129.412
1215 632.756 570.384 42.55 121.4 -55.7372 -82.2264
1216 632.675 570.326 42.5547 121.5 -64.1781 85.1208
1217 632.594 570.267 42.5593 121.6 -64.3257 95.6187
1218 632.513 570.209 42.5639 121.7 -67.3346 77.4388
1219 632.431 570.151 42.5686 121.8 -58.8383 -82.6001
1220 632.35 570.092 42.5732 121.9 -55.8347 88.684
1221 632.269 570.034 42.5778 122 -60.4121 -25.008
1222 632.188 569.976 42.5825 122.1 -61.4029 103.851
1223 632.106 569.918 42.5871 122.2 -61.9676 172.498
1224 632.025 569.859 42.5917 122.3 -69.1696 -134.577
1225 631.944 569.801 42.5964 122.4 -54.4133 -112.582
1226 631.863 569.743 42.601 122.5 -64.4236 43.0148
1227 631.781 569.684 42.6056 122.6 -60.0513 -96.9563
1228 631.7 569.626 42.6103 122.7 -62.3304 79.2642
1229 631.619 569.568 42.6149 122.8 -69.2738 -148.043
1230 631.538 569.509 42.6195 122.9 -64.5116 -26.5381
1231 631.456 569.451 42.6241 123 -62.8791 106.091
1232 631.375 569.393 42.6288 123.1 -58.6893 -25.0198
1233 631.294 569.334 42.6334 123.2 -57.3575 120.509
1234 631.213 569.276 42.638 123.3 -61.2018 -38.1459
1235 631.131 569.218 42.6427 123.4 -59.0715 137.608
1236 631.05 569.16 42.6473 123.5 -56.4596 -67.5309
1237 630.969 569.101 42.6519 123.6 -61.5577 84.1799
1238 630.888 569.043 42.6566 123.7 -63.789 -118.382
1239 630.806 568.985 42.6612 123.8 -71.4058 20.4936
1240 630.725 568.926 42.6658 123.9 -65.6705 -16.6668
1241 630.644 568.868 42.6705 124 -60.1296 23.3845
1242 630.563 568.81 42.6751 124.1 -62.2978 98.4755
1243 630.481 568.751 42.6797 124.2 -78.7656 -119.443
1244 630.4 568.693 42.6844 124.3 -67.9963 59.9571
1245 630.319 568.635 42.689 124.4 -60.9304 173.244
1246 630.238 568.576 42.6936 124.5 -65.6058 -33.17
1247 630.157 568.518 42.6983 124.6 -63.2843 20.1583
1248 630.075 568.46 42.7029 124.7 -68.2849 -35.5994
1249 629.994 568.402 42.7075 124.8 -69.8198 168.153
1250 629.913 568.343 42.7122 124.9 -58.2513 -111.992
1251 629.832 568.285 42.7168 125 -64.7497 -5.45121
1252 629.75 568.227 42.7214 125.1 -59.9729 107.216
1253 629.669 568.168 42.7261 125.2 -70.784 118.22
1254 629.588 568.11 42.7307 125.3 -67.865 33.9086
1255 629.507 568.052 42.7353 125.4 -61.112 -39.3639
1256 629.425 567.993 42.74 125.5 -57.9412 59.0206
1257 629.344 567.935 42.7446 125.6 -57.6239 148.828
1258 629.263 567.877 42.7492 125.7 -62.2041 -131.941
1259 629.182 567.818 42.7539 125.8 -61.5173 106.478
1260 629.1 567.76 42.7585 125.9 -56.0964 -154.267
1261 629.019 567.702 42.7631 126 -55.2105 -55.3913
1262 628.938 567.644 42.7678 126.1 -57.0754 37.5834
1263 628.857 567.585 42.7724 126.2 -65.1271 155.212
1264 628.775 567.527 42.777 126.3 -66.8111 -95.5188
1265 628.694 567.469 42.7817 126.4 -65.7496 105.557
1266 628.613 567.41 42.7863 126.5 -69.0792 -72.7842
1267 628.532 567.352 42.7909 126.6 -58.9338 15.1857
1268 628.45 567.294 42.7956 126.7 -59.8621 113.167
1269 628.369 567.235 42.8002 126.8 -61.2275 -156.821
1270 628.288 567.177 42.8048 126.9 -72.0439 6.37798
1271 628.207 567.119 42.8095 127 -62.3151 94.6965
1272 628.126 567.06 42.8141 127.1 -63.1962 -111.133
1273 628.044 567.002 42.8187 127.2 -63.4301 34.5569
1274 627.963 566.944 42.8234 127.3 -57.0905 122.064
1275 627.882 566.886 42.828 127.4 -57.0534 -169.668
1276 627.801 566.827 42.8326 127.5 -58.6912 -81.7332
1277 627.719 566.769 42.8373 127.6 -71.2992 49.2617
1278 627.638 566.711 42.8419 127.7 -60.9572 -143.329
1279 627.557 566.652 42.8465 127.8 -59.5747 -68.2979
1280 627.476 566.594 42.8512 127.9 -59.7214 2.906
1281 627.394 566.536 42.8558 128 -77.9319 80.8883
1282 627.313 566.477 42.8604 128.1 -57.5678 -85.0307
1283 627.232 566.419 42.8651 128.2 -54.758 -6.48147
1284 627.151 566.361 42.8697 128.3 -55.7704 44.9567
1285 627.069 566.302 42.8743 128.4 -60.2788 139.018
1286 626.988 566.244 42.879 128.5 -62.1518 -139.597
1287 626.907 566.186 42.8836 128.6 -62.911 -43.1152
1288 626.826 566.127 42.8882 128.7 -59.6333 -176.94
1289 626.744 566.069 42.8929 128.8 -60.0313 -138.249
1290 626.663 566.011 42.8975 128.9 -54.6458 -86.9026
1291 626.582 565.953 42.9021 129 -64.9224 10.4669
1292 626.501 565.894 42.9068 129.1 -57.511 177.423
1293 626.419 565.836 42.9114 129.2 -58.1444 -147.996
1294 626.338 565.778 42.916 129.3 -56.448 -84.8905
1295 626.257 565.719 42.9207 129.4 -59.5177 4.16875
1296 626.172 565.667 42.9253 129.5 -62.5411 -179.79
1297 626.079 565.632 42.93 129.6 -55.5275 119.789
1298 625.985 565.597 42.9346 129.7 -59.7329 105.016
1299 625.892 565.562 42.9392 129.8 -63.4964 -160.909
1300 625.798 565.526 42.9439 129.9 -60.2062 137.891
1301 625.704 565.491 42.9485 130 -58.2365 76.5871
1302 625.611 565.456 42.9532 130.1 -64.2003 -164.878
1303 625.517 565.421 42.9578 130.2 -59.2839 57.3065
1304 625.424 565.386 42.9625 130.3 -58.2244 12.3744
1305 625.33 565.351 42.9671 130.4 -74.4028 -15.3065
1306 625.236 565.315 42.9718 130.5 -62.2455 38.4254
1307 625.143 565.28 42.9764 130.6 -57.7642 -0.715933
1308 625.049 565.245 42.9811 130.7 -62.1987 12.3712
1309 624.956 565.21 42.9857 130.8 -63.7313 -5.89187
1310 624.862 565.175 42.9904 130.9 -60.7467 -16.0553
1311 624.768 565.139 42.995 131 -58.5463 -57.8309
1312 624.675 565.104 42.9997 131.1 -68.5502 -27.8
1313 624.581 565.069 43.0043 131.2 -57.2326 -95.9339
1314 624.487 565.034 43.009 131.3 -59.9686 -120.991
1315 624.394 564.999 43.0136 131.4 -64.7398 -120.23
1316 624.3 564.964 43.0183 131.5 -65.376 -162.704
1317 624.207 564.928 43.0229 131.6 -59.2419 -144.584
1318 624.113 564.893 43.0276 131.7 -65.4192 -156.74
1319 624.019 564.858 43.0322 131.8 -58.6571 108.31
1320 623.926 564.823 43.0369 131.9 -62.1417 148.628
1321 623.832 564.788 43.0415 132 -62.2247 62.4164
1322 623.739 564.752 43.0462 132.1 -56.2961 76.2317
1323 623.645 564.717 43.0508 132.2 -60.4508 28.9812
1324 623.551 564.682 43.0555 132.3 -57.2951 63.706
1325 623.458 564.647 43.0601 132.4 -57.3024 -16.0473
1326 623.364 564.612 43.0648 132.5 -61.0585 55.5897
1327 623.271 564.577 43.0694 132.6 -58.4489 -26.618
1328 623.177 564.541 43.0741 132.7 -73.3698 -39.0233
1329 623.083 564.506 43.0787 132.8 -55.3976 -87.031
1330 622.99 564.471 43.0833 132.9 -64.7323 168.711
1331 622.896 564.436 43.088 133 -57.255 -148.983
1332 622.803 564.401 43.0926 133.1 -56.0682 -176.129
1333 622.709 564.365 43.0973 133.2 -60.0511 132.931
1334 622.615 564.33 43.1019 133.3 -58.4918 141.786
1335 622.522 564.295 43.1066 133.4 -57.6954 77.0818
1336 622.428 564.26 43.1112 133.5 -65.9598 147.431
1337 622.335 564.225 43.1159 133.6 -57.2487 -2.1654
1338 622.241 564.19 43.1205 133.7 -63.5699 48.5408
1339 622.147 564.154 43.1252 133.8 -57.1448 -60.5643
1340 622.054 564.119 43.1298 133.9 -60.1193 -82.4363
1341 621.96 564.084 43.1345 134 -64.1258 -89.9652
1342 621.867 564.049 43.1391 134.1 -54.3933 -133.705
1343 621.773 564.014 43.1438 134.2 -71.7417 -178.118
1344 621.679 563.978 43.1484 134.3 -59.2979 146.804
1345 621.586 563.943 43.1531 134.4 -63.5691 96.6309
1346 621.492 563.908 43.1577 134.5 -66.3475 82.2745
1347 621.398 563.873 43.1624 134.6 -59.5136 -12.1999
1348 621.305 563.838 43.167 134.7 -90.3282 103.564
1349 621.211 563.803 43.1717 134.8 -58.2899 -72.3289
1350 621.118 563.767 43.1763 134.9 -70.3245 -167.4
1351 621.024 563.732 43.181 135 -69.6697 161.531
1352 620.93 563.697 43.1856 135.1 -60.4273 149.714
1353 620.837 563.662 43.1903 135.2 -68.3195 85.1798
1354 620.743 563.627 43.1949 135.3 -63.3066 56.5046
1355 620.65 563.591 43.1996 135.4 -58.371 -9.03263
1356 620.556 563.556 43.2042 135.5 -58.0369 29.2471
1357 620.462 563.521 43.2089 135.6 -58.3683 -144.594
1358 620.369 563.486 43.2135 135.7 -58.4034 -122.155
1359 620.275 563.451 43.2181 135.8 -56.3375 -145.293
1360 620.182 563.415 43.2228 135.9 -62.292 46.6615
1361 620.088 563.38 43.2274 136 -54.9674 84.8717
1362 619.994 563.345 43.2321 136.1 -57.7397 23.9949
1363 619.901 563.31 43.2367 136.2 -55.5907 20.9375
1364 619.807 563.275 43.2414 136.3 -63.6603 -105.722
1365 619.714 563.24 43.246 136.4 -61.2827 -131.922
1366 619.62 563.204 43.2507 136.5 -53.5758 -171.447
1367 619.526 563.169 43.2553 136.6 -68.6813 -176.592
1368 619.433 563.134 43.26 136.7 -60.2643 77.3975
1369 619.339 563.099 43.2646 136.8 -61.7562 -8.10604
1370 619.246 563.064 43.2693 136.9 -56.974 -42.2299
1371 619.152 563.028 43.2739 137 -59.6715 -75.9931
1372 619.058 562.993 43.2786 137.1 -68.5355 -80.9384
1373 618.965 562.958 43.2832 137.2 -63.4109 107.971
1374 618.871 562.923 43.2879 137.3 -58.5157 1.26085
1375 618.778 562.888 43.2925 137.4 -55.9633 9.00802
1376 618.684 562.853 43.2972 137.5 -56.8312 -62.7908
1377 618.59 562.817 43.3018 137.6 -60.3777 -91.2632
1378 618.497 562.782 43.3065 137.7 -61.4932 -161.306
1379 618.403 562.747 43.3111 137.8 -71.9934 59.6321
1380 618.309 562.712 43.3158 137.9 -56.6611 22.822
1381 618.216 562.677 43.3204 138 -62.2332 -82.7088
1382 618.122 562.641 43.3251 138.1 -52.7976 -85.9044
1383 618.029 562.606 43.3297 138.2 -60.9215 -178.63
1384 617.935 562.571 43.3344 138.3 -55.1059 156.445
1385 617.841 562.536 43.339 138.4 -61.7967 77.0051
1386 617.748 562.501 43.3437 138.5 -59.8337 22.2568
1387 617.654 562.466 43.3483 138.6 -64.0396 -96.2203
1388 617.561 562.43 43.3529 138.7 -62.3319 -119.178
1389 617.467 562.395 43.3576 138.8 -59.5543 123.97
1390 617.373 562.36 43.3622 138.9 -74.1439 -78.2612
1391 617.28 562.325 43.3669 139 -56.4117 -20.8836
1392 617.186 562.29 43.3715 139.1 -68.3619 -134.686
1393 617.093 562.254 43.3762 139.2 -57.4621 -160.38
1394 616.999 562.219 43.3808 139.3 -80.9163 16.8136
1395 616.905 562.184 43.3855 139.4 -57.177 55.8216
1396 616.812 562.149 43.3901 139.5 -68.0454 -159.5
1397 616.718 562.114 43.3948 139.6 -62.0745 -71.8099
1398 616.625 562.079 43.3995 139.7 -67.4503 90.5572
1399 616.531 562.043 43.4126 139.8 -60.8492 -154.686
1400 616.437 562.008 43.4256 139.9 -60.0001 144.573
1401 616.344 561.973 43.4386 140 -59.0731 163.618
1402 616.25 561.938 43.4516 140.1 -57.9179 122.168
1403 616.157 561.903 43.4647 140.2 -62.1078 168.778
1404 616.063 561.867 43.4777 140.3 -60.0385 93.4482
1405 615.969 561.832 43.4907 140.4 -60.1509 178.456
1406 615.876 561.797 43.5037 140.5 -67.076 75.0198
1407 615.782 561.762 43.5168 140.6 -57.0742 157.434
1408 615.688 561.727 43.5298 140.7 -67.1723 -158.177
1409 615.595 561.692 43.5428 140.8 -57.3025 125.88
1410 615.501 561.656 43.5559 140.9 -60.9093 152.963
1411 615.408 561.621 43.5689 141 -60.7664 97.8251
1412 615.314 561.586 43.5819 141.1 -59.4895 125.769
1413 615.22 561.551 43.5949 141.2 -65.4897 121.372
1414 615.127 561.516 43.608 141.3 -59.1203 101.84
1415 615.033 561.48 43.621 141.4 -59.8474 96.4492
1416 614.94 561.445 43.634 141.5 -60.6402 73.695
1417 614.846 561.41 43.6471 141.6 -60.2694 85.4068
1418 614.752 561.375 43.6601 141.7 -60.6918 54.8574
1419 614.659 561.34 43.6731 141.8 -57.4477 52.0332
1420 614.565 561.305 43.6861 141.9 -60.4876 4.24374
1421 614.472 561.269 43.6992 142 -58.1815 10.3304
1422 614.378 561.234 43.7122 142.1 -66.6228 12.7384
1423 614.284 561.199 43.7252 142.2 -57.189 -36.9308
1424 614.191 561.164 43.7382 142.3 -61.7821 -25.761
1425 614.097 561.129 43.7513 142.4 -61.0372 -105.219
1426 614.004 561.093 43.7643 142.5 -60.6375 -42.8316
1427 613.91 561.058 43.7773 142.6 -69.6521 -145.89
1428 613.816 561.023 43.7904 142.7 -57.4836 -118.644
1429 613.723 560.988 43.8034 142.8 -74.5711 -67.2466
1430 613.632 560.946 43.8165 142.9 -61.7839 140.19
1431 613.549 560.891 43.8299 143 -58.4301 -139.752
1432 613.466 560.836 43.8433 143.1 -57.0976 -78.0551
1433 613.383 560.78 43.8568 143.2 -57.3623 -19.4318
1434 613.299 560.725 43.8702 143.3 -59.7033 36.1333
1435 613.216 560.67 43.8836 143.4 -62.8364 102.614
1436 613.133 560.614 43.897 143.5 -63.2411 174.302
1437 613.049 560.559 43.9104 143.6 -62.4476 -115.883
1438 612.966 560.504 43.9238 143.7 -61.9496 -44.1705
1439 612.883 560.448 43.9372 143.8 -60.8198 26.2362
1440 612.799 560.393 43.9506 143.9 -58.7387 80.0199
1441 612.716 560.338 43.964 144 -56.8958 123.074
1442 612.633 560.283 43.9774 144.1 -56.51 170.895
1443 612.549 560.227 43.9908 144.2 -57.9208 -124.247
1444 612.466 560.172 44.0042 144.3 -58.8384 -53.9273
1445 612.383 560.117 44.0176 144.4 -61.8 -11.6763
1446 612.299 560.061 44.031 144.5 -64.3182 -26.64
1447 612.216 560.006 44.0444 144.6 -60.6868 -5.20004
1448 612.133 559.951 44.0578 144.7 -59.4003 50.3854
1449 612.049 559.895 44.0712 144.8 -59.2007 108.124
1450 611.966 559.84 44.0846 144.9 -60.1427 156.38
1451 611.883 559.785 44.0981 145 -62.8088 -155.543
1452 611.8 559.73 44.1115 145.1 -63.6287 -104.982
1453 611.716 559.674 44.1249 145.2 -62.585 -97.4818
1454 611.633 559.619 44.1383 145.3 -58.0795 -94.8563
1455 611.55 559.564 44.1517 145.4 -55.9879 -73.3042
1456 611.466 559.508 44.1651 145.5 -57.4752 -44.2125
1457 611.383 559.453 44.1785 145.6 -60.5424 -39.999
1458 611.3 559.398 44.1919 145.7 -56.8407 -57.9121
1459 611.216 559.342 44.2053 145.8 -54.9695 -42.2847
1460 611.133 559.287 44.2187 145.9 -58.0442 -13.4136
1461 611.05 559.232 44.2321 146 -63.602 0.0939805
1462 610.966 559.176 44.2455 146.1 -62.0748 -43.7958
1463 610.883 559.121 44.2589 146.2 -58.2339 -48.5132
1464 610.8 559.066 44.2723 146.3 -58.0253 -31.171
1465 610.716 559.011 44.2857 146.4 -59.5301 -7.72613
1466 610.633 558.955 44.2991 146.5 -63.5656 -37.3254
1467 610.55 558.9 44.3125 146.6 -57.9133 -75.7074
1468 610.466 558.845 44.326 146.7 -57.0214 -60.8093
1469 610.383 558.789 44.3394 146.8 -60.9048 -59.0552
1470 610.3 558.734 44.3528 146.9 -58.8465 -118.74
1471 610.217 558.679 44.3662 147 -56.301 -131.803
1472 610.133 558.623 44.3796 147.1 -61.1884 -143.924
1473 610.05 558.568 44.393 147.2 -60.855 159.369
1474 609.967 558.513 44.4064 147.3 -56.9951 140.538
1475 609.883 558.458 44.4198 147.4 -59.5992 107.612
1476 609.8 558.402 44.4332 147.5 -59.7907 40.0921
1477 609.717 558.347 44.4466 147.6 -55.6915 19.0244
1478 609.633 558.292 44.46 147.7 -57.4978 1.23572
1479 609.55 558.236 44.4734 147.8 -59.1705 -99.8
1480 609.467 558.181 44.4868 147.9 -54.5253 -117.213
1481 609.383 558.126 44.5002 148 -59.8511 -137.041
1482 609.3 558.07 44.5136 148.1 -56.7567 113.959
1483 609.217 558.015 44.527 148.2 -55.2725 84.4572
1484 609.133 557.96 44.5404 148.3 -60.0834 22.5206
1485 609.05 557.905 44.5538 148.4 -56.5889 -49.5282
1486 608.967 557.849 44.5673 148.5 -57.8619 -102.46
1487 608.883 557.794 44.5807 148.6 -60.2409 171.993
1488 608.8 557.739 44.5941 148.7 -59.6678 101.979
1489 608.717 557.683 44.6075 148.8 -60.3342 18.2958
1490 608.634 557.628 44.6209 148.9 -60.3847 -74.1917
1491 608.55 557.573 44.6343 149 -60.1451 -166.126
1492 608.467 557.517 44.6477 149.1 -58.7082 115.404
1493 608.384 557.462 44.6611 149.2 -57.891 -1.3226
1494 608.3 557.407 44.6745 149.3 -55.2288 -70.5642
1495 608.217 557.351 44.6879 149.4 -60.232 173.608
1496 608.134 557.296 44.7013 149.5 -54.1383 104.771
1497 608.05 557.241 44.7147 149.6 -62.8348 -27.8536
1498 607.967 557.186 44.7281 149.7 -56.6072 -109.931
1499 607.884 557.13 44.7415 149.8 -67.7069 103.895
1500 607.8 557.075 44.7549 149.9 -60.3307 -4.33513
1501 607.717 557.02 44.7683 150 -59.8516 -166.957
1502 607.634 556.964 44.7817 150.1 -57.512 101.991
1503 607.55 556.909 44.7951 150.2 -57.8421 -35.1003
1504 607.467 556.854 44.8086 150.3 -57.661 -147.25
1505 607.384 556.798 44.822 150.4 -58.5423 74.9183
1506 607.3 556.743 44.8354 150.5 -62.7202 -74.24
1507 607.217 556.688 44.8488 150.6 -59.1134 143.21
1508 607.134 556.633 44.8622 150.7 -56.3259 -14.5489
1509 607.051 556.577 44.8756 150.8 -61.4923 -165.032
1510 606.967 556.522 44.889 150.9 -56.4949 73.4628
1511 606.884 556.467 44.9024 151 -56.9554 -136.468
1512 606.801 556.411 44.9158 151.1 -64.9121 58.2496
1513 606.717 556.356 44.9292 151.2 -54.5012 -74.5625
1514 606.634 556.301 44.9426 151.3 -56.5087 90.987
1515 606.551 556.245 44.956 151.4 -61.5354 -33.4976
1516 606.467 556.19 44.9694 151.5 -59.5708 109.356
1517 606.384 556.135 44.9828 151.6 -58.0771 -106.406
1518 606.301 556.079 44.9962 151.7 -57.12 101.454
1519 606.217 556.024 45.0096 151.8 -57.405 -80.3747
1520 606.134 555.969 45.023 151.9 -61.1108 78.7237
1521 606.051 555.914 45.0365 152 -57.8889 -153.368
1522 605.967 555.858 45.0499 152.1 -56.8894 3.12036
1523 605.884 555.803 45.0633 152.2 -62.3 -164.593
1524 605.801 555.748 45.0767 152.3 -58.7291 -14.5319
1525 605.717 555.692 45.0901 152.4 -55.0893 89.0355
1526 605.634 555.637 45.1035 152.5 -56.2357 -136.779
1527 605.551 555.582 45.1169 152.6 -61.3667 -12.6144
1528 605.468 555.526 45.1303 152.7 -61.6589 137.142
1529 605.384 555.471 45.1437 152.8 -58.0124 -86.4244
1530 605.301 555.416 45.1571 152.9 -60.291 26.9244
1531 605.218 555.361 45.1705 153 -57.0208 125.079
1532 605.134 555.305 45.1839 153.1 -56.7222 -112.088
1533 605.051 555.25 45.1973 153.2 -60.1103 -15.5388
1534 604.968 555.195 45.2107 153.3 -56.308 68.6808
1535 604.884 555.139 45.2241 153.4 -58.4814 -175.977
1536 604.801 555.084 45.2375 153.5 -64.0518 -108.479
1537 604.718 555.029 45.2509 153.6 -57.8269 -17.2741
1538 604.634 554.973 45.2643 153.7 -62.0911 103.248
1539 604.551 554.918 45.2778 153.8 -64.2044 131.896
1540 604.468 554.863 45.2912 153.9 -58.4983 -133.009
1541 604.384 554.807 45.3046 154 -66.0581 -47.268
1542 604.301 554.752 45.318 154.1 -61.2605 -16.0735
1543 604.218 554.697 45.3314 154.2 -61.1502 62.0352
1544 604.134 554.642 45.3448 154.3 -61.3962 80.0358
1545 604.051 554.586 45.3582 154.4 -60.2346 148.592
1546 603.968 554.531 45.3716 154.5 -58.8991 177.882
1547 603.885 554.476 45.385 154.6 -57.1928 -136.202
1548 603.801 554.42 45.3984 154.7 -57.826 -120.227
1549 603.718 554.365 45.4118 154.8 -56.3502 -75.5994
1550 603.635 554.31 45.4252 154.9 -58.0376 -62.7336
1551 603.551 554.254 45.4386 155 -55.7434 -29.2315
1552 603.468 554.199 45.452 155.1 -60.9141 -29.4753
1553 603.385 554.144 45.4654 155.2 -58.9263 -21.131
1554 603.301 554.089 45.4788 155.3 -60.1788 -88.6918
1555 603.218 554.033 45.4922 155.4 -56.1836 -56.3257
1556 603.135 553.978 45.5057 155.5 -56.7042 -75.1943
1557 603.051 553.923 45.5191 155.6 -58.64 -59.8137
1558 602.968 553.867 45.5325 155.7 -58.7585 -138.203
1559 602.885 553.812 45.5459 155.8 -57.977 -147.033
1560 602.801 553.757 45.5593 155.9 -55.2064 179.253
1561 602.718 553.701 45.5727 156 -60.2813 142.174
1562 602.635 553.646 45.5861 156.1 -57.0183 83.0308
1563 602.551 553.591 45.5995 156.2 -56.2825 28.7036
1564 602.468 553.535 45.6129 156.3 -60.6229 -17.7339
1565 602.385 553.48 45.6263 156.4 -57.8611 -110.675
1566 602.302 553.424 45.6397 156.5 -55.1873 157.545
1567 602.237 553.348 45.6527 156.6 -59.9809 166.073
1568 602.171 553.273 45.6656 156.7 -62.4656 133.03
1569 602.106 553.198 45.6786 156.8 -53.5931 89.1037
1570 602.04 553.122 45.6915 156.9 -59.4124 63.7026
1571 601.974 553.047 45.7045 157 -61.0525 14.9357
1572 601.909 552.971 45.7175 157.1 -54.8724 -29.3226
1573 601.843 552.896 45.7304 157.2 -57.6126 -120.719
1574 601.777 552.82 45.7434 157.3 -56.5499 172.01
1575 601.712 552.745 45.7564 157.4 -63.7122 93.0707
1576 601.646 552.669 45.7693 157.5 -55.1168 7.98139
1577 601.581 552.594 45.7823 157.6 -59.4946 -105.933
1578 601.515 552.518 45.7953 157.7 -54.3527 142.823
1579 601.449 552.443 45.8082 157.8 -57.7384 -4.54502
1580 601.384 552.367 45.8212 157.9 -55.63 -121.536
1581 601.318 552.292 45.8342 158 -56.893 65.5767
1582 601.253 552.217 45.8471 158.1 -59.9392 -58.9932
1583 601.187 552.141 45.8601 158.2 -56.5801 127.474
1584 601.121 552.066 45.8731 158.3 -59.2584 -55.6241
1585 601.056 551.99 45.886 158.4 -59.0663 139.585
1586 600.99 551.915 45.899 158.5 -57.2843 -60.0164
1587 600.924 551.839 45.912 158.6 -56.5875 82.7216
1588 600.859 551.764 45.9249 158.7 -57.3335 -145.456
1589 600.793 551.688 45.9379 158.8 -59.685 -7.82754
1590 600.728 551.613 45.9509 158.9 -59.6148 138.446
1591 600.662 551.537 45.9638 159 -56.444 -110.161
1592 600.596 551.462 45.9768 159.1 -53.8743 -20.455
1593 600.531 551.386 45.9898 159.2 -53.7589 64.9585
1594 600.465 551.311 46.0027 159.3 -56.258 144.07
1595 600.4 551.236 46.0157 159.4 -59.9009 -144.303
1596 600.334 551.16 46.0287 159.5 -62.4225 -104.592
1597 600.268 551.085 46.0416 159.6 -57.1897 -74.4504
1598 600.203 551.009 46.0546 159.7 -54.5912 -20.6897
1599 600.137 550.934 46.0675 159.8 -55.4024 22.8852
1600 600.071 550.858 46.0805 159.9 -57.2011 41.8717
1601 600.006 550.783 46.0935 160 -56.1937 34.6691
1602 599.94 550.707 46.1064 160.1 -55.571 29.2978
1603 599.875 550.632 46.1194 160.2 -56.2104 28.5628
1604 599.809 550.556 46.1324 160.3 -65.0564 -17.9913
1605 599.743 550.481 46.1453 160.4 -56.6233 -86.1166
1606 599.678 550.405 46.1583 160.5 -55.1834 -131.44
1607 599.612 550.33 46.1713 160.6 -55.8466 177.277
1608 599.547 550.255 46.1842 160.7 -58.4792 98.8316
1609 599.481 550.179 46.1972 160.8 -60.4163 -5.5537
1610 599.415 550.104 46.2102 160.9 -54.4055 -96.0994
1611 599.35 550.028 46.2231 161 -57.4254 139.952
1612 599.284 549.953 46.2361 161.1 -56.4531 17.6356
1613 599.218 549.877 46.2491 161.2 -60.3342 -95.0554
1614 599.153 549.802 46.262 161.3 -54.5023 91.987
1615 599.087 549.726 46.275 161.4 -57.2631 -60.7367
1616 599.022 549.651 46.288 161.5 -57.6798 106.554
1617 598.956 549.575 46.3009 161.6 -55.6879 -58.8418
1618 598.89 549.5 46.3139 161.7 -59.2798 76.3185
1619 598.825 549.424 46.3269 161.8 -55.8642 -86.0908
1620 598.759 549.349 46.3398 161.9 -54.5353 19.5995
1621 598.694 549.273 46.3528 162 -61.0063 158.867
1622 598.628 549.198 46.3658 162.1 -56.928 -69.1882
1623 598.562 549.123 46.3787 162.2 -54.8751 4.19695
1624 598.497 549.047 46.3917 162.3 -56.2622 74.1143
1625 598.431 548.972 46.4047 162.4 -60.4516 172.199
1626 598.365 548.896 46.4176 162.5 -57.4578 -101.356
1627 598.3 548.821 46.4306 162.6 -53.812 -62.936
1628 598.234 548.745 46.4436 162.7 -53.7887 -31.1035
1629 598.169 548.67 46.4565 162.8 -55.8125 -26.0645
1630 598.103 548.594 46.4695 162.9 -56.2303 -21.595
1631 598.037 548.519 46.4824 163 -58.0844 -16.6508
1632 597.972 548.443 46.4954 163.1 -61.6887 -18.1884
1633 597.906 548.368 46.5084 163.2 -59.1579 -56.5393
1634 597.841 548.292 46.5213 163.3 -56.9739 -71.1626
1635 597.775 548.217 46.5343 163.4 -56.0275 -131.338
1636 597.709 548.142 46.5473 163.5 -55.7678 164.811
1637 597.644 548.066 46.5602 163.6 -57.3707 89.4591
1638 597.578 547.991 46.5732 163.7 -56.7032 16.3709
1639 597.512 547.915 46.5862 163.8 -58.0195 -111.17
1640 597.447 547.84 46.5991 163.9 -58.0599 129.23
1641 597.381 547.764 46.6121 164 -53.918 -12.2101
1642 597.316 547.689 46.6251 164.1 -53.7491 -134.049
1643 597.25 547.613 46.638 164.2 -60.1861 93.7581
1644 597.184 547.538 46.651 164.3 -61.0306 -148.471
1645 597.119 547.462 46.664 164.4 -54.5891 64.4849
1646 597.053 547.387 46.6769 164.5 -55.1671 -136.97
1647 596.988 547.311 46.6899 164.6 -57.7635 14.3536
1648 596.922 547.236 46.7029 164.7 -60.0923 127.699
1649 596.856 547.161 46.7158 164.8 -54.3635 -107.037
1650 596.791 547.085 46.7288 164.9 -60.1651 47.9825
1651 596.725 547.01 46.7418 165 -54.4774 82.2747
1652 596.659 546.934 46.7547 165.1 -56.9642 -168.085
1653 596.594 546.859 46.7677 165.2 -56.9776 -118.714
1654 596.528 546.783 46.7807 165.3 -57.4509 -79.4169
1655 596.463 546.708 46.7936 165.4 -59.433 -42.0558
1656 596.397 546.632 46.8066 165.5 -54.7239 -0.357117
1657 596.331 546.557 46.8196 165.6 -53.8867 -15.8757
1658 596.266 546.481 46.8325 165.7 -56.8233 -16.3921
1659 596.2 546.406 46.8455 165.8 -59.4353 -36.6559
1660 596.135 546.33 46.8584 165.9 -59.5324 -34.4258
1661 596.069 546.255 46.8714 166 -54.0479 -84.2134
1662 596.003 546.18 46.8844 166.1 -53.9641 179.176
1663 595.938 546.104 46.8973 166.2 -55.8838 107.983
1664 595.872 546.029 46.9103 166.3 -57.3564 17.7915
1665 595.806 545.953 46.9233 166.4 -53.055 -92.7911
1666 595.741 545.878 46.9362 166.5 -56.7399 136.925
1667 595.675 545.802 46.9492 166.6 -57.6304 15.3513
1668 595.61 545.727 46.9622 166.7 -58.3232 -113.498
1669 595.544 545.651 46.9751 166.8 -55.9588 87.8996
1670 595.478 545.576 46.9881 166.9 -54.8982 -110.223
1671 595.413 545.5 47.0011 167 -53.9192 42.0169
1672 595.347 545.425 47.014 167.1 -53.7624 -176.949
1673 595.281 545.349 47.027 167.2 -54.666 -35.2299
1674 595.216 545.274 47.04 167.3 -55.3894 94.7103
1675 595.15 545.199 47.0529 167.4 -55.1187 -163.688
1676 595.085 545.123 47.0659 167.5 -54.4253 -67.2823
1677 595.019 545.048 47.0789 167.6 -55.5282 16.8049
1678 594.953 544.972 47.0918 167.7 -54.9179 76.7229
1679 594.888 544.897 47.1048 167.8 -55.04 143.787
1680 594.822 544.821 47.1178 167.9 -57.8113 167.644
1681 594.757 544.746 47.1307 168 -56.9341 -177.651
1682 594.691 544.67 47.1437 168.1 -55.9873 -172.278
1683 594.625 544.595 47.1567 168.2 -55.0661 177.79
1684 594.56 544.519 47.1696 168.3 -55.9866 161.307
1685 594.494 544.444 47.1826 168.4 -56.6887 104.947
1686 594.428 544.368 47.1956 168.5 -55.0519 55.5595
1687 594.363 544.293 47.2085 168.6 -57.2018 -2.67297
1688 594.33 544.203 47.219 168.7 -56.497 -110.441
1689 594.315 544.104 47.2281 168.8 -57.081 -138.347
1690 594.301 544.005 47.2371 168.9 -57.4028 141.84
1691 594.287 543.906 47.2461 169 -57.8141 70.2904
1692 594.273 543.807 47.2552 169.1 -57.728 -30.1148
1693 594.259 543.708 47.2642 169.2 -57.9075 -110.563
1694 594.245 543.609 47.2733 169.3 -57.3348 131.123
1695 594.23 543.51 47.2823 169.4 -55.7271 24.7779
1696 594.216 543.411 47.2913 169.5 -56.1035 -102.959
1697 594.202 543.312 47.3004 169.6 -56.4137 125.33
1698 594.188 543.213 47.3094 169.7 -54.49 -28.6012
1699 594.174 543.114 47.3185 169.8 -56.9703 174.705
1700 594.159 543.015 47.3275 169.9 -59.1842 4.12642
1701 594.145 542.916 47.3366 170 -55.8794 168.349
1702 594.131 542.817 47.3456 170.1 -55.3092 -27.9628
1703 594.117 542.718 47.3546 170.2 -55.6188 125.761
1704 594.103 542.619 47.3637 170.3 -57.7691 -83.8383
1705 594.089 542.52 47.3727 170.4 -57.8854 35.2945
1706 594.074 542.421 47.3818 170.5 -55.561 154.938
1707 594.06 542.322 47.3908 170.6 -55.3567 -85.2398
1708 594.046 542.223 47.3998 170.7 -56.8617 9.60966
1709 594.032 542.124 47.4089 170.8 -56.2343 93.7748
1710 594.018 542.025 47.4179 170.9 -56.1003 171.123
1711 594.003 541.926 47.427 171 -56.2353 -114.107
1712 593.989 541.827 47.436 171.1 -58.1344 -73.0401
1713 593.975 541.728 47.4451 171.2 -55.78 -24.0649
1714 593.961 541.629 47.4541 171.3 -56.4346 16.875
1715 593.947 541.53 47.4631 171.4 -57.9899 42.2243
1716 593.932 541.431 47.4722 171.5 -55.145 47.4284
1717 593.918 541.332 47.4812 171.6 -57.7232 76.1302
1718 593.904 541.233 47.4903 171.7 -56.2103 41.1199
1719 593.89 541.134 47.4993 171.8 -56.3368 40.806
1720 593.876 541.035 47.5083 171.9 -58.2342 21.6827
1721 593.862 540.936 47.5174 172 -55.0238 -27.7316
1722 593.847 540.837 47.5264 172.1 -57.7764 -62.3128
1723 593.833 540.738 47.5355 172.2 -55.9636 -130.287
1724 593.819 540.639 47.5445 172.3 -57.3707 177.69
1725 593.805 540.54 47.5536 172.4 -56.631 87.1526
1726 593.791 540.441 47.5626 172.5 -56.5675 33.2757
1727 593.776 540.342 47.5716 172.6 -57.5171 -92.7803
1728 593.762 540.243 47.5807 172.7 -56.1892 179.638
1729 593.748 540.144 47.5897 172.8 -55.9985 57.9388
1730 593.734 540.045 47.5988 172.9 -59.2297 -55.5724
1731 593.72 539.946 47.6078 173 -56.7128 175.548
1732 593.706 539.847 47.6168 173.1 -57.1917 39.2
1733 593.691 539.748 47.6259 173.2 -56.139 -103.104
1734 593.677 539.649 47.6349 173.3 -55.5684 83.4656
1735 593.663 539.55 47.644 173.4 -57.2149 -83.1067
1736 593.649 539.451 47.653 173.5 -57.5215 105.613
1737 593.635 539.352 47.6621 173.6 -56.3501 -84.1575
1738 593.62 539.253 47.6711 173.7 -57.2988 80.9379
1739 593.606 539.154 47.6801 173.8 -59.808 -105.744
1740 593.592 539.055 47.6892 173.9 -57.8323 50.7889
1741 593.578 538.956 47.6982 174 -56.8911 -178.265
1742 593.564 538.857 47.7073 174.1 -58.593 -37.4834
1743 593.549 538.758 47.7163 174.2 -56.1014 72.3139
1744 593.535 538.659 47.7253 174.3 -58.8674 -175.218
1745 593.521 538.56 47.7344 174.4 -56.1738 -54.0766
1746 593.507 538.461 47.7434 174.5 -59.2164 12.012
1747 593.493 538.362 47.7525 174.6 -58.2054 141.12
1748 593.479 538.263 47.7615 174.7 -55.6195 -176.678
1749 593.464 538.164 47.7706 174.8 -60.7625 -62.0058
1750 593.45 538.065 47.7796 174.9 -53.5078 -21.8717
1751 593.436 537.966 47.7886 175 -59.1177 36.815
1752 593.422 537.867 47.7977 175.1 -54.4186 116.429
1753 593.408 537.768 47.8067 175.2 -54.806 130.058
1754 593.393 537.669 47.8158 175.3 -60.996 -164.444
1755 593.379 537.57 47.8248 175.4 -54.5758 -143.485
1756 593.365 537.471 47.8339 175.5 -57.6679 -157.749
1757 593.351 537.372 47.8429 175.6 -61.9142 -120.678
1758 593.337 537.273 47.8519 175.7 -53.8046 -118.762
1759 593.323 537.174 47.861 175.8 -55.4902 -138.48
1760 593.308 537.075 47.87 175.9 -62.7993 -123.367
1761 593.294 536.977 47.8791 176 -56.1033 -140.383
1762 593.28 536.878 47.8881 176.1 -54.6219 168.894
1763 593.266 536.779 47.8971 176.2 -59.8694 127.364
1764 593.252 536.68 47.9062 176.3 -59.6076 131.696
1765 593.237 536.581 47.9152 176.4 -55.2717 63.4934
1766 593.223 536.482 47.9243 176.5 -54.5937 -9.11398
1767 593.209 536.383 47.9333 176.6 -59.7705 -90.5752
1768 593.195 536.284 47.9424 176.7 -60.9241 -115.959
1769 593.181 536.185 47.9514 176.8 -56.6552 166.62
1770 593.166 536.086 47.9604 176.9 -54.0072 73.2272
1771 593.152 535.987 47.9695 177 -56.8093 -41.1735
1772 593.138 535.888 47.9785 177.1 -59.4218 -143.76
1773 593.124 535.789 47.9876 177.2 -60.8381 162.748
1774 593.11 535.69 47.9966 177.3 -58.5522 45.5138
1775 593.096 535.591 48.0056 177.4 -55.2182 -79.241
1776 593.081 535.492 48.0147 177.5 -53.976 144.247
1777 593.067 535.393 48.0237 177.6 -55.6012 -10.6399
1778 593.053 535.294 48.0328 177.7 -57.419 -140.212
1779 593.039 535.195 48.0418 177.8 -61.4734 77.2867
1780 593.025 535.096 48.0509 177.9 -61.717 -55.5261
1781 593.01 534.997 48.0599 178 -59.195 171.625
1782 592.996 534.898 48.0689 178.1 -57.3901 3.03269
1783 592.982 534.799 48.078 178.2 -56.1946 -166.305
1784 592.968 534.7 48.087 178.3 -54.3482 3.60063
1785 592.954 534.601 48.0961 178.4 -54.0759 176.708
1786 592.94 534.502 48.1051 178.5 -55.2979 -23.0472
1787 592.925 534.403 48.1141 178.6 -55.5474 145.113
1788 592.911 534.304 48.1232 178.7 -55.7444 -61.1785
1789 592.897 534.205 48.1322 178.8 -55.6848 94.4789
1790 592.883 534.106 48.1413 178.9 -56.7314 -129.826
1791 592.869 534.007 48.1503 179 -57.0465 18.9065
1792 592.854 533.908 48.1594 179.1 -57.6314 151.283
1793 592.84 533.809 48.1684 179.2 -57.8946 -72.1927
1794 592.826 533.71 48.1774 179.3 -57.114 48.1996
1795 592.812 533.611 48.1865 179.4 -57.2322 165.36
1796 592.798 533.512 48.1955 179.5 -56.6541 -86.581
1797 592.784 533.413 48.2046 179.6 -56.4805 21.0266
1798 592.769 533.314 48.2136 179.7 -56.0029 120.582
1799 592.755 533.215 48.2226 179.8 -55.405 -137.687
1800 592.741 533.116 48.2317 179.9 -55.5359 -44.2623
1801 592.727 533.017 48.2407 180 -55.1545 44.2978
1802 592.713 532.918 48.2498 180.1 -55.1281 129.62
1803 592.698 532.819 48.2588 180.2 -55.4748 -149.535
1804 592.684 532.72 48.2679 180.3 -56.4053 -79.6072
1805 592.67 532.621 48.2769 180.4 -56.5889 -11.7455
1806 592.656 532.522 48.2859 180.5 -57.7834 49.8712
1807 592.642 532.423 48.295 180.6 -60.3012 104.653
1808 592.627 532.324 48.304 180.7 -62.338 131.931
1809 592.613 532.225 48.3131 180.8 -60.8643 149.006
1810 592.599 532.126 48.3221 180.9 -57.5525 -174.316
1811 592.585 532.027 48.3311 181 -55.9535 -135.122
1812 592.571 531.928 48.3402 181.1 -55.7071 -97.6971
1813 592.557 531.829 48.3492 181.2 -55.6646 -65.1814
1814 592.542 531.73 48.3583 181.3 -57.264 -41.5139
1815 592.528 531.631 48.3673 181.4 -60.7684 -31.1737
1816 592.521 531.532 48.3755 181.5 -58.1486 -139.208
1817 592.541 531.434 48.3807 181.6 -56.7507 7.69713
1818 592.561 531.336 48.3859 181.7 -59.8562 -142.008
1819 592.581 531.238 48.3911 181.8 -55.7961 0.142302
1820 592.601 531.14 48.3963 181.9 -61.7007 -150.245
1821 592.621 531.042 48.4015 182 -55.3708 -8.5078
1822 592.641 530.944 48.4067 182.1 -60.879 173.912
1823 592.66 530.846 48.4119 182.2 -54.8426 -30.7337
1824 592.68 530.748 48.4171 182.3 -66.2834 140.609
1825 592.7 530.65 48.4223 182.4 -55.1797 -60.7711
1826 592.72 530.552 48.4275 182.5 -61.0132 125.162
1827 592.74 530.454 48.4326 182.6 -56.5159 -105.273
1828 592.76 530.356 48.4378 182.7 -59.5492 85.0655
1829 592.78 530.258 48.443 182.8 -57.1267 -158.294
1830 592.8 530.16 48.4482 182.9 -57.2136 43.7019
1831 592.82 530.062 48.4534 183 -59.7213 144.908
1832 592.84 529.964 48.4586 183.1 -55.0646 -28.9024
1833 592.859 529.866 48.4638 183.2 -63.1611 109.499
1834 592.879 529.768 48.469 183.3 -56.0844 -113.933
1835 592.899 529.67 48.4742 183.4 -59.3696 78.927
1836 592.919 529.572 48.4794 183.5 -58.7502 176.306
1837 592.939 529.474 48.4845 183.6 -55.2211 -19.8295
1838 592.959 529.376 48.4897 183.7 -64.1402 122.61
1839 592.979 529.278 48.4949 183.8 -56.6802 -119.183
1840 592.999 529.18 48.5001 183.9 -57.3964 55.4181
1841 593.019 529.082 48.5053 184 -64.9274 169.356
1842 593.039 528.984 48.5105 184.1 -56.1942 -58.442
1843 593.058 528.886 48.5157 184.2 -56.0909 105.369
1844 593.078 528.788 48.5209 184.3 -63.9179 -158.132
1845 593.098 528.69 48.5261 184.4 -56.6083 -31.0388
1846 593.118 528.592 48.5313 184.5 -55.5225 133.345
1847 593.138 528.494 48.5364 184.6 -66.0936 -102.712
1848 593.158 528.396 48.5416 184.7 -59.7713 -15.2005
1849 593.178 528.298 48.5468 184.8 -54.7855 144.699
1850 593.198 528.2 48.552 184.9 -58.666 -70.4906
1851 593.218 528.102 48.5572 185 -64.308 6.75385
1852 593.238 528.004 48.5624 185.1 -56.4054 130.702
1853 593.257 527.906 48.5676 185.2 -55.4553 -90.7688
1854 593.277 527.808 48.5728 185.3 -59.5684 40.8442
1855 593.297 527.71 48.578 185.4 -64.991 125.35
1856 593.317 527.612 48.5832 185.5 -59.06 -122.875
1857 593.337 527.514 48.5883 185.6 -55.8814 1.50996
1858 593.357 527.416 48.5935 185.7 -57.9466 139.643
1859 593.377 527.318 48.5987 185.8 -60.7446 -100.13
1860 593.397 527.22 48.6039 185.9 -63.1386 -2.79426
1861 593.417 527.122 48.6091 186 -58.6153 66.5074
1862 593.437 527.024 48.6143 186.1 -56.1606 -176.171
1863 593.456 526.926 48.6195 186.2 -55.2289 -44.2663
1864 593.476 526.828 48.6247 186.3 -57.0943 79.8134
1865 593.496 526.73 48.6299 186.4 -61.6673 166.3
1866 593.516 526.632 48.6351 186.5 -63.454 -131.501
1867 593.536 526.534 48.6402 186.6 -59.8164 -27.5191
1868 593.556 526.436 48.6454 186.7 -58.175 77.3772
1869 593.576 526.338 48.6506 186.8 -56.0464 178.784
1870 593.596 526.24 48.6558 186.9 -55.8808 -69.5219
1871 593.616 526.142 48.661 187 -56.8744 40.8985
1872 593.636 526.044 48.6662 187.1 -58.6507 154.295
1873 593.655 525.946 48.6714 187.2 -62.8251 -116.854
1874 593.675 525.848 48.6766 187.3 -62.8057 -38.7363
1875 593.695 525.75 48.6818 187.4 -64.547 44.7744
1876 593.715 525.652 48.687 187.5 -66.9368 105.005
1877 593.735 525.554 48.6921 187.6 -63.8471 177.986
1878 593.755 525.456 48.6973 187.7 -60.6676 -79.1445
1879 593.775 525.358 48.7025 187.8 -58.586 12.9488
1880 593.795 525.26 48.7077 187.9 -59.0187 97.4948
1881 593.815 525.162 48.7129 188 -59.4328 167.172
1882 593.835 525.064 48.7181 188.1 -56.908 -93.7757
1883 593.854 524.966 48.7198 188.2 -58.7147 -28.3727
1884 593.874 524.868 48.7197 188.3 -56.5726 13.9302
1885 593.894 524.77 48.7196 188.4 -57.2778 64.6163
1886 593.914 524.672 48.7195 188.5 -55.9462 105.657
1887 593.934 524.574 48.7194 188.6 -56.0039 152.222
1888 593.954 524.476 48.7193 188.7 -55.6628 -173.981
1889 593.974 524.378 48.7192 188.8 -56.6742 -123.734
1890 593.994 524.28 48.7191 188.9 -56.1687 -88.8779
1891 594.014 524.182 48.719 189 -57.0258 -48.8493
1892 594.034 524.084 48.7189 189.1 -58.4922 -18.5025
1893 594.053 523.986 48.7188 189.2 -58.8549 24.5886
1894 594.073 523.888 48.7188 189.3 -60.6791 44.9088
1895 594.093 523.79 48.7187 189.4 -61.4306 90.9488
1896 594.113 523.692 48.7186 189.5 -62.9797 117.766
1897 594.133 523.594 48.7185 189.6 -63.7869 171.555
1898 594.153 523.496 48.7184 189.7 -64.8985 -130.397
1899 594.173 523.398 48.7183 189.8 -60.8434 -77.1489
1900 594.193 523.3 48.7182 189.9 -59.4437 -44.9971
1901 594.213 523.202 48.7181 190 -57.086 -18.0482
1902 594.233 523.104 48.718 190.1 -57.6612 0.0437748
1903 594.252 523.006 48.7179 190.2 -55.7691 14.0101
1904 594.272 522.908 48.7178 190.3 -58.5321 28.2486
1905 594.292 522.81 48.7177 190.4 -57.2569 42.0645
1906 594.312 522.712 48.7176 190.5 -62.7758 88.0702
1907 594.332 522.614 48.7176 190.6 -65.6717 104.398
1908 594.352 522.516 48.7175 190.7 -59.9379 -166.157
1909 594.372 522.418 48.7174 190.8 -59.2869 -148.879
1910 594.392 522.32 48.7173 190.9 -56.6186 -151.007
1911 594.412 522.222 48.7172 191 -58.9714 -146.429
1912 594.432 522.124 48.7171 191.1 -59.8048 -135.558
1913 594.451 522.026 48.717 191.2 -67.6532 -90.736
1914 594.471 521.928 48.7169 191.3 -60.7149 -38.1482
1915 594.491 521.83 48.7168 191.4 -56.8203 -8.98826
1916 594.511 521.732 48.7167 191.5 -57.3013 -26.8016
1917 594.531 521.634 48.7166 191.6 -59.0356 -18.9764
1918 594.551 521.536 48.7165 191.7 -72.1892 1.75309
1919 594.571 521.438 48.7164 191.8 -59.8643 59.3368
1920 594.591 521.34 48.7164 191.9 -56.6822 68.4628
1921 594.611 521.242 48.7163 192 -56.2843 56.8715
1922 594.631 521.144 48.7162 192.1 -64.31 86.4042
1923 594.65 521.046 48.7161 192.2 -65.1344 129.585
1924 594.67 520.948 48.716 192.3 -56.3336 132.19
1925 594.69 520.85 48.7159 192.4 -58.0444 119.037
1926 594.71 520.752 48.7158 192.5 -61.068 121.213
1927 594.73 520.654 48.7157 192.6 -60.9064 -160.533
1928 594.75 520.556 48.7156 192.7 -56.6645 172.571
1929 594.77 520.458 48.7155 192.8 -57.9457 165.868
1930 594.79 520.36 48.7154 192.9 -69.3109 -165.169
1931 594.81 520.262 48.7153 193 -57.4799 -136.512
1932 594.83 520.164 48.7153 193.1 -57.4788 -153.24
1933 594.849 520.066 48.7152 193.2 -61.4486 -177.703
1934 594.869 519.968 48.7151 193.3 -59.3816 -94.4257
1935 594.889 519.87 48.715 193.4 -57.3606 -123.718
1936 594.909 519.772 48.7149 193.5 -59.5612 -146.3
1937 594.929 519.674 48.7148 193.6 -62.0142 -78.1171
1938 594.949 519.576 48.7147 193.7 -56.3615 -98.1003
1939 594.969 519.478 48.7146 193.8 -61.0479 -124.563
1940 594.989 519.38 48.7145 193.9 -62.705 -64.7386
1941 595.009 519.282 48.7144 194 -56.9358 -91.5848
1942 595.029 519.184 48.7143 194.1 -60.8117 -113.152
1943 595.048 519.086 48.7142 194.2 -58.0206 -60.8679
1944 595.125 519.044 48.7066 194.3 -59.8853 101.607
1945 595.223 519.022 48.6963 194.4 -58.093 178.148
1946 595.32 518.999 48.686 194.5 -65.1173 -14.6341
1947 595.418 518.977 48.6757 194.6 -57.6921 41.9036
1948 595.515 518.955 48.6653 194.7 -69.1929 158.298
1949 595.613 518.933 48.655 194.8 -57.6268 -113.376
1950 595.71 518.911 48.6447 194.9 -63.9051 -48.5317
1951 595.808 518.888 48.6344 195 -57.8157 81.4801
1952 595.905 518.866 48.624 195.1 -64.325 106.332
1953 596.003 518.844 48.6137 195.2 -56.9809 -119.745
1954 596.1 518.822 48.6034 195.3 -61.7896 -109.067
1955 596.198 518.8 48.5931 195.4 -56.7052 16.0553
1956 596.295 518.777 48.5827 195.5 -61.7959 37.6942
1957 596.393 518.755 48.5724 195.6 -58.3738 141.923
1958 596.49 518.733 48.5621 195.7 -62.3048 126.678
1959 596.588 518.711 48.5518 195.8 -56.7935 -120.474
1960 596.685 518.688 48.5414 195.9 -66.9719 -152.011
1961 596.783 518.666 48.5311 196 -57.8352 -59.7039
1962 596.88 518.644 48.5208 196.1 -65.872 -53.7708
1963 596.978 518.622 48.5105 196.2 -56.7865 2.97178
1964 597.075 518.6 48.5001 196.3 -68.6829 34.2475
1965 597.173 518.577 48.4898 196.4 -57.0828 32.4643
1966 597.27 518.555 48.4795 196.5 -63.3149 99.9634
1967 597.368 518.533 48.4692 196.6 -59.6028 31.2889
1968 597.465 518.511 48.4588 196.7 -59.703 85.1092
1969 597.563 518.489 48.4485 196.8 -62.4685 45.3346
1970 597.66 518.466 48.4382 196.9 -57.207 81.9506
1971 597.758 518.444 48.4279 197 -66.4511 48.0718
1972 597.855 518.422 48.4175 197.1 -59.381 38.9826
1973 597.953 518.4 48.4072 197.2 -61.0527 30.0222
1974 598.05 518.377 48.3969 197.3 -60.9225 13.2576
1975 598.148 518.355 48.3866 197.4 -63.3796 -24.7
1976 598.245 518.333 48.3762 197.5 -60.931 -66.6399
1977 598.343 518.311 48.3659 197.6 -60.4791 -91.1073
1978 598.44 518.289 48.3556 197.7 -61.3853 -130.638
1979 598.538 518.266 48.3453 197.8 -61.9114 -166.023
1980 598.635 518.244 48.3349 197.9 -61.8279 135.822
1981 598.733 518.222 48.3246 198 -59.7778 84.8395
1982 598.83 518.2 48.3143 198.1 -61.6205 39.9568
1983 598.928 518.178 48.304 198.2 -61.4907 -40.5951
1984 599.025 518.155 48.2936 198.3 -60.9212 -99.9704
1985 599.123 518.133 48.2833 198.4 -60.6173 -166.895
1986 599.22 518.111 48.273 198.5 -61.9962 120.694
1987 599.318 518.089 48.2627 198.6 -60.1196 35.3821
1988 599.415 518.066 48.2523 198.7 -61.6293 -33.6004
1989 599.513 518.044 48.242 198.8 -61.6505 -142.385
1990 599.61 518.022 48.2317 198.9 -60.2327 142.877
1991 599.708 518 48.2214 199 -61.48 44.7229
1992 599.805 517.978 48.211 199.1 -61.8897 -56.4604
1993 599.903 517.955 48.2007 199.2 -60.6386 -160.661
1994 600 517.933 48.1904 199.3 -62.634 93.4339
1995 600.098 517.911 48.1801 199.4 -60.0977 -20.9801
1996 600.195 517.889 48.1697 199.5 -62.4791 -130.985
1997 600.293 517.866 48.1594 199.6 -60.864 101.888
1998 600.39 517.844 48.1491 199.7 -61.5412 -18.2299
1999 600.488 517.822 48.1387 199.8 -61.7958 -140.773
2000 600.585 517.8 48.1284 199.9 -60.5598 77.6794
2001 600.683 517.778 48.1181 200 -62.5773 -48.3734
2002 600.78 517.755 48.1078 200.1 -60.2698 163.832
2003 600.878 517.733 48.0974 200.2 -62.4241 24.2494
2004 600.975 517.711 48.0871 200.3 -60.8356 -122.999
2005 601.073 517.689 48.0768 200.4 -61.6002 85.8922
2006 601.17 517.667 48.0665 200.5 -62.1184 -75.365
2007 601.268 517.644 48.0561 200.6 -60.8659 137.501
2008 601.365 517.622 48.0458 200.7 -61.6067 -42.1887
2009 601.463 517.6 48.0355 200.8 -61.3029 167.26
2010 601.56 517.578 48.0252 200.9 -61.1262 -15.6765
2011 601.658 517.555 48.0148 201 -61.4921 178.017
2012 601.755 517.533 48.0045 201.1 -61.7869 -4.42939
2013 601.853 517.511 47.9942 201.2 -60.864 177.018
2014 601.95 517.489 47.9839 201.3 -62.1563 -17.8099
2015 602.048 517.467 47.9735 201.4 -61.4709 170.658
2016 602.145 517.444 47.9632 201.5 -60.8684 -39.3473
2017 602.243 517.422 47.9529 201.6 -62.6417 130.726
2018 602.34 517.4 47.9426 201.7 -61.6351 -68.0106
2019 602.438 517.378 47.9322 201.8 -61.3196 88.6002
2020 602.535 517.356 47.9219 201.9 -60.9723 -129.461
2021 602.633 517.333 47.9116 202 -63.4697 26.4861
2022 602.73 517.311 47.9013 202.1 -60.5646 176.884
2023 602.828 517.289 47.8909 202.2 -61.5153 -57.1535
2024 602.925 517.267 47.8806 202.3 -63.2405 111.897
2025 603.023 517.244 47.8703 202.4 -64.108 -131.401
2026 603.12 517.222 47.86 202.5 -64.895 -2.0864
2027 603.218 517.2 47.8496 202.6 -62.1243 102.565
2028 603.315 517.178 47.8393 202.7 -64.1065 -139.539
2029 603.413 517.156 47.829 202.8 -60.6877 -3.48648
2030 603.51 517.133 47.8187 202.9 -59.3771 109.804
2031 603.608 517.111 47.8083 203 -59.9922 -130.007
2032 603.705 517.089 47.798 203.1 -59.8297 -9.97163
2033 603.803 517.067 47.7877 203.2 -61.0574 103.236
2034 603.9 517.045 47.7774 203.3 -60.9048 -145.826
2035 603.998 517.022 47.767 203.4 -62.3976 -61.694
2036 604.095 517 47.7567 203.5 -66.2551 36.746
2037 604.193 516.978 47.7464 203.6 -64.7452 122.651
2038 604.29 516.956 47.7361 203.7 -63.4103 -165.693
2039 604.388 516.933 47.7257 203.8 -62.4356 -87.2895
2040 604.485 516.911 47.7154 203.9 -60.6264 6.36995
2041 604.583 516.889 47.7051 204 -59.6326 76.8817
2042 604.68 516.867 47.6948 204.1 -61.0373 171.823
2043 604.778 516.845 47.6844 204.2 -58.9832 -102.004
2044 604.875 516.822 47.6741 204.3 -59.8099 -34.7324
2045 604.973 516.8 47.6638 204.4 -61.6319 32.071
2046 605.07 516.778 47.6535 204.5 -64.1657 93.4627
2047 605.168 516.756 47.6431 204.6 -65.8091 144.714
2048 605.265 516.733 47.6328 204.7 -68.3394 -174.194
2049 605.363 516.711 47.6225 204.8 -67.2938 -115.534
2050 605.46 516.689 47.6122 204.9 -62.8954 -72.5226
2051 605.558 516.667 47.6018 205 -61.5014 -28.4435
2052 605.657 516.673 47.5908 205.1 -60.7044 38.0584
2053 605.756 516.685 47.5795 205.2 -60.3874 -78.2987
2054 605.855 516.698 47.5682 205.3 -60.6236 160.191
2055 605.954 516.71 47.557 205.4 -60.0467 24.9342
2056 606.054 516.723 47.5457 205.5 -60.6921 -104.82
2057 606.153 516.735 47.5344 205.6 -61.4616 113.41
2058 606.252 516.748 47.5232 205.7 -59.6013 -35.6593
2059 606.351 516.761 47.5119 205.8 -61.0541 178.061
2060 606.45 516.773 47.5006 205.9 -61.0834 22.9417
2061 606.55 516.786 47.4894 206 -62.8409 -136.404
2062 606.649 516.798 47.4781 206.1 -63.6231 53.1026
2063 606.748 516.811 47.4668 206.2 -68.0275 -129.205
2064 606.847 516.824 47.4556 206.3 -69.07 18.4381
2065 606.946 516.836 47.4443 206.4 -64.3165 176.772
2066 607.046 516.849 47.4331 206.5 -63.8177 2.18741
2067 607.145 516.861 47.4218 206.6 -67.5895 157.616
2068 607.244 516.874 47.4105 206.7 -65.8007 -59.6129
2069 607.343 516.886 47.3993 206.8 -63.5161 76.1317
2070 607.442 516.899 47.388 206.9 -62.7543 -117.861
2071 607.542 516.912 47.3767 207 -68.7071 10.2435
2072 607.641 516.924 47.3655 207.1 -71.1171 152.006
2073 607.74 516.937 47.3542 207.2 -82.3543 -69.4673
2074 607.839 516.949 47.3429 207.3 -69.837 145.226
2075 607.938 516.962 47.3317 207.4 -74.9011 -74.5863
2076 608.038 516.974 47.3204 207.5 -77.7376 -154.537
2077 608.137 516.987 47.3091 207.6 -77.332 -3.59883
2078 608.236 517 47.2979 207.7 -75.2408 -161.977
2079 608.335 517.012 47.2866 207.8 -77.3636 -169.628
2080 608.434 517.025 47.2754 207.9 -75.2299 111.298
2081 608.534 517.037 47.2641 208 -102.056 149.805
2082 608.633 517.05 47.2528 208.1 -80.3053 80.8823
2083 608.732 517.062 47.2416 208.2 -80.2082 87.0571
2084 608.831 517.075 47.2303 208.3 -74.8826 -30.5463
2085 608.931 517.088 47.219 208.4 -78.7256 145.126
2086 609.03 517.1 47.2078 208.5 -71.681 -68.9019
2087 609.129 517.113 47.1965 208.6 -71.4035 120.241
2088 609.228 517.125 47.1852 208.7 -72.8214 -38.1559
2089 609.327 517.138 47.174 208.8 -75.4057 171.516
2090 609.427 517.151 47.1627 208.9 -81.5009 18.8687
2091 609.526 517.163 47.1514 209 -77.3618 -155.901
2092 609.625 517.176 47.1402 209.1 -74.7757 76.9182
2093 609.724 517.188 47.1289 209.2 -78.9189 -81.5402
2094 609.823 517.201 47.1177 209.3 -75.4371 39.4442
2095 609.923 517.213 47.1064 209.4 -71.3589 -100.734
2096 610.022 517.226 47.0951 209.5 -77.5818 144.385
2097 610.121 517.239 47.0839 209.6 -82.3613 -22.287
2098 610.22 517.251 47.0726 209.7 -77.6118 143.785
2099 610.319 517.264 47.0613 209.8 -76.6392 -20.8888
2100 610.419 517.276 47.0501 209.9 -80.4953 171.271
2101 610.518 517.289 47.0388 210 -80.7513 59.7745
2102 610.617 517.301 47.0275 210.1 -86.6482 -114.095
2103 610.716 517.314 47.0163 210.2 -82.9073 -49.2738
2104 610.815 517.327 47.005 210.3 -80.7187 -163.456
2105 610.915 517.339 46.9937 210.4 -85.9569 65.8057
2106 611.014 517.352 46.9825 210.5 -90.2522 41.259
2107 611.113 517.364 46.9712 210.6 -79.3321 -30.5473
2108 611.212 517.377 46.96 210.7 -78.7328 172.209
2109 611.311 517.389 46.9487 210.8 -84.6207 41.0355
2110 611.411 517.402 46.9374 210.9 -84.333 -131.585
2111 611.51 517.415 46.9262 211 -87.5539 -103.195
2112 611.609 517.427 46.9149 211.1 -81.5802 56.9471
2113 611.708 517.44 46.9036 211.2 -84.133 -81.7
2114 611.807 517.452 46.8924 211.3 -82.9184 62.0308
2115 611.907 517.465 46.8811 211.4 -75.1734 -125.678
2116 612.006 517.478 46.8698 211.5 -72.0257 80.1495
2117 612.105 517.49 46.8586 211.6 -72.7891 -87.7415
2118 612.204 517.503 46.8473 211.7 -77.194 101.021
2119 612.304 517.515 46.836 211.8 -74.579 -107.568
2120 612.403 517.528 46.8248 211.9 -76.3183 77.2214
2121 612.502 517.54 46.8135 212 -79.8655 -96.467
2122 612.601 517.553 46.8023 212.1 -79.1742 60.7075
2123 612.7 517.566 46.791 212.2 -82.5618 -110.693
2124 612.8 517.578 46.7797 212.3 -87.2406 140.548
2125 612.899 517.591 46.7685 212.4 -88.2685 -1.07834
2126 612.998 517.603 46.7572 212.5 -97.8689 109.647
2127 613.097 517.616 46.7459 212.6 -81.9764 -55.1705
2128 613.196 517.628 46.7347 212.7 -79.3611 134.015
2129 613.296 517.641 46.7234 212.8 -89.935 17.6737
2130 613.395 517.654 46.7121 212.9 -95.9237 -67.6496
2131 613.494 517.666 46.7009 213 -86.0531 -84.9704
2132 613.593 517.679 46.6896 213.1 -82.5353 139.703
2133 613.692 517.691 46.6783 213.2 -76.8565 -7.04223
2134 613.792 517.704 46.6671 213.3 -77.2555 -178.778
2135 613.891 517.716 46.6558 213.4 -79.6124 -12.0349
2136 613.99 517.729 46.6446 213.5 -77.7847 166.199
2137 614.089 517.742 46.6333 213.6 -77.1683 -25.9881
2138 614.188 517.754 46.622 213.7 -81.3149 147.722
2139 614.288 517.767 46.6108 213.8 -79.4373 -57.3939
2140 614.387 517.779 46.5995 213.9 -78.8045 95.4622
2141 614.486 517.792 46.5882 214 -81.4597 -76.4766
2142 614.585 517.805 46.577 214.1 -79.6095 94.0303
2143 614.684 517.817 46.5657 214.2 -80.6779 -119.587
2144 614.784 517.83 46.5544 214.3 -78.3535 55.5796
2145 614.883 517.842 46.5432 214.4 -80.2187 -98.2445
2146 614.982 517.855 46.5319 214.5 -81.2943 99.2738
2147 615.081 517.867 46.5206 214.6 -81.7371 -6.33588
2148 615.18 517.88 46.5094 214.7 -84.1077 -169.479
2149 615.28 517.893 46.4981 214.8 -84.484 63.2507
2150 615.379 517.905 46.4868 214.9 -95.4785 132.224
2151 615.478 517.918 46.4756 215 -80.2415 -102.456
2152 615.577 517.93 46.4643 215.1 -76.6726 95.9043
2153 615.677 517.943 46.4531 215.2 -75.1321 -72.5817
2154 615.776 517.955 46.4418 215.3 -76.7611 100.685
2155 615.875 517.968 46.4305 215.4 -85.5344 -116.856
2156 615.974 517.981 46.4193 215.5 -83.8542 24.4087
2157 616.073 517.993 46.408 215.6 -78.9869 177.122
2158 616.173 518.006 46.3967 215.7 -78.3824 19.9698
2159 616.272 518.018 46.3855 215.8 -79.6073 -143.138
2160 616.371 518.031 46.3742 215.9 -78.9188 59.7427
2161 616.47 518.043 46.3629 216 -82.3225 -116.224
2162 616.569 518.056 46.3517 216.1 -82.7891 21.044
2163 616.669 518.069 46.3404 216.2 -79.9893 142.83
2164 616.768 518.081 46.3291 216.3 -74.6729 -48.3742
2165 616.867 518.094 46.3179 216.4 -74.9699 124.447
2166 616.966 518.106 46.3066 216.5 -77.4503 -63.2305
2167 617.065 518.119 46.2954 216.6 -85.6443 67.9388
2168 617.165 518.131 46.2841 216.7 -90.1832 141.55
2169 617.264 518.144 46.2728 216.8 -86.7111 -93.12
2170 617.363 518.157 46.2616 216.9 -94.0923 96.1257
2171 617.462 518.169 46.2503 217 -88.4444 135.478
2172 617.561 518.182 46.239 217.1 -79.2537 -124.99
2173 617.661 518.194 46.2278 217.2 -78.9646 18.2553
2174 617.76 518.207 46.2165 217.3 -76.349 171.624
2175 617.859 518.22 46.2052 217.4 -76.7757 -18.8566
2176 617.958 518.232 46.194 217.5 -78.4924 149.338
2177 618.057 518.245 46.1827 217.6 -81.5819 12.6602
2178 618.157 518.257 46.1714 217.7 -80.6798 -166.081
2179 618.256 518.27 46.1602 217.8 -81.3214 11.6028
2180 618.355 518.282 46.1489 217.9 -91.1074 172.579
2181 618.454 518.295 46.1377 218 -82.2138 -101.911
2182 618.553 518.308 46.1264 218.1 -77.1422 40.3256
2183 618.653 518.32 46.1151 218.2 -78.1894 -160.012
2184 618.752 518.333 46.1039 218.3 -82.3952 -25.9417
2185 618.851 518.345 46.0926 218.4 -82.8438 110.967
2186 618.95 518.358 46.0813 218.5 -84.7509 -124.299
2187 619.05 518.37 46.0701 218.6 -81.4349 91.1805
2188 619.149 518.383 46.0588 218.7 -77.6499 -85.5198
2189 619.248 518.396 46.0475 218.8 -78.649 84.9446
2190 619.347 518.408 46.0363 218.9 -82.2401 -107.979
2191 619.446 518.421 46.025 219 -84.3533 -6.91576
2192 619.546 518.433 46.0137 219.1 -83.8162 127.529
2193 619.645 518.446 46.0025 219.2 -83.4642 -88.9306
2194 619.744 518.458 45.9912 219.3 -81.0575 127.799
2195 619.843 518.471 45.98 219.4 -78.2406 -16.9868
2196 619.942 518.484 45.9687 219.5 -78.5697 150.444
2197 620.042 518.496 45.9574 219.6 -80.5236 -45.6559
2198 620.141 518.509 45.9462 219.7 -82.0036 37.1687
2199 620.24 518.521 45.9349 219.8 -78.9311 167.267
2200 620.339 518.534 45.9236 219.9 -83.3125 -58.6041
2201 620.438 518.547 45.9124 220 -80.0568 136.189
2202 620.538 518.559 45.9011 220.1 -79.0651 -19.6673
2203 620.637 518.572 45.8898 220.2 -85.9889 141.718
2204 620.736 518.584 45.8786 220.3 -87.0459 -128.54
2205 620.835 518.597 45.8673 220.4 -76.5944 -22.1309
2206 620.934 518.609 45.856 220.5 -75.2031 126.275
2207 621.034 518.622 45.8448 220.6 -79.2925 -112.93
2208 621.133 518.635 45.8335 220.7 -86.2182 29.3125
2209 621.232 518.647 45.8223 220.8 -94.5198 127.527
2210 621.331 518.66 45.811 220.9 -82.1759 -22.5306
2211 621.43 518.672 45.7997 221 -75.5303 147.784
2212 621.53 518.685 45.7885 221.1 -72.8136 -62.5914
2213 621.629 518.697 45.7772 221.2 -78.2728 65.8026
2214 621.728 518.71 45.7659 221.3 -85.8527 150.098
2215 621.827 518.723 45.7547 221.4 -93.2629 166.746
2216 621.926 518.735 45.7434 221.5 -88.8597 -147.722
2217 622.026 518.748 45.7321 221.6 -80.5289 -44.7776
2218 622.125 518.76 45.7209 221.7 -77.283 104.154
2219 622.224 518.773 45.7096 221.8 -79.5095 -124.209
2220 622.323 518.785 45.6983 221.9 -87.9263 7.05996
2221 622.423 518.798 45.6871 222 -97.8149 -159.13
2222 622.522 518.804 45.6759 222.1 -76.8844 -177.721
2223 622.622 518.81 45.6647 222.2 -84.6746 -65.5847
2224 622.722 518.816 45.6535 222.3 -76.2964 -58.3849
2225 622.822 518.822 45.6423 222.4 -82.096 14.9578
2226 622.922 518.827 45.6311 222.5 -82.7047 -18.7155
2227 623.021 518.833 45.6199 222.6 -82.3525 31.4559
2228 623.121 518.839 45.6088 222.7 -76.6726 52.8448
2229 623.221 518.845 45.5976 222.8 -81.7292 136.684
2230 623.321 518.851 45.5864 222.9 -81.2641 134.626
2231 623.421 518.857 45.5752 223 -81.2461 -173.193
2232 623.521 518.863 45.564 223.1 -83.3256 156.999
2233 623.62 518.869 45.5528 223.2 -76.5635 -127.29
2234 623.72 518.875 45.5416 223.3 -76.9276 -50.5988
2235 623.82 518.881 45.5304 223.4 -89.6283 -51.6588
2236 623.92 518.887 45.5192 223.5 -80.4693 -0.330773
2237 624.02 518.893 45.508 223.6 -94.8045 -45.8518
2238 624.12 518.899 45.4968 223.7 -79.7635 12.8374
2239 624.219 518.905 45.4857 223.8 -82.5241 97.8952
2240 624.319 518.911 45.4745 223.9 -84.7763 146.198
2241 624.419 518.917 45.4633 224 -94.3782 -149.688
2242 624.519 518.923 45.4521 224.1 -91.0277 -168.94
2243 624.619 518.929 45.4409 224.2 -90.1318 -168.005
2244 624.718 518.935 45.4297 224.3 -78.3426 -134.325
2245 624.818 518.941 45.4185 224.4 -77.3423 -58.6389
2246 624.918 518.947 45.4073 224.5 -80.6002 -28.8931
2247 625.018 518.953 45.3961 224.6 -84.5501 -1.59223
2248 625.118 518.959 45.3849 224.7 -85.9896 -92.4967
2249 625.218 518.965 45.3738 224.8 -78.3078 -27.4103
2250 625.317 518.971 45.3626 224.9 -76.9883 13.5887
2251 625.417 518.977 45.3514 225 -78.5516 76.8344
2252 625.517 518.983 45.3402 225.1 -85.1861 118.346
2253 625.617 518.989 45.329 225.2 -90.8175 56.1463
2254 625.717 518.995 45.3178 225.3 -82.732 63.1973
2255 625.816 519.001 45.3066 225.4 -77.135 125.935
2256 625.916 519.007 45.2954 225.5 -78.5182 167.235
2257 626.016 519.013 45.2842 225.6 -82.6859 -129.592
2258 626.116 519.019 45.273 225.7 -91.5569 64.8211
2259 626.216 519.025 45.2619 225.8 -85.29 114.1
2260 626.316 519.031 45.2507 225.9 -77.5144 -157.463
2261 626.415 519.037 45.2395 226 -79.6272 -126.173
2262 626.515 519.043 45.2283 226.1 -78.5855 -36.5496
2263 626.615 519.049 45.2171 226.2 -83.4475 -5.46833
2264 626.715 519.055 45.2059 226.3 -86.9088 108.086
2265 626.815 519.061 45.1947 226.4 -88.8628 -132.064
2266 626.914 519.067 45.1835 226.5 -80.7708 -56.8291
2267 627.014 519.073 45.1723 226.6 -80.4687 8.20282
2268 627.114 519.079 45.1611 226.7 -78.4471 33.3368
2269 627.214 519.085 45.1499 226.8 -88.811 55.0347
2270 627.314 519.091 45.1388 226.9 -82.5843 50.3789
2271 627.414 519.097 45.1276 227 -80.6674 46.7506
2272 627.513 519.103 45.1164 227.1 -80.8232 60.4612
2273 627.613 519.109 45.1052 227.2 -85.6745 56.2285
2274 627.713 519.115 45.094 227.3 -89.9634 28.5019
2275 627.813 519.121 45.0828 227.4 -77.3129 49.1044
2276 627.913 519.127 45.0716 227.5 -75.7504 43.7546
2277 628.013 519.133 45.0604 227.6 -80.7426 93.6497
2278 628.112 519.139 45.0492 227.7 -80.4423 118.645
2279 628.212 519.145 45.038 227.8 -85.1078 9.98245
2280 628.312 519.151 45.0269 227.9 -79.9332 -2.63436
2281 628.412 519.157 45.0157 228 -78.3807 56.7384
2282 628.512 519.163 45.0045 228.1 -76.7947 91.3851
2283 628.611 519.169 44.9933 228.2 -79.9562 116.539
2284 628.711 519.175 44.9821 228.3 -84.6858 -174.83
2285 628.811 519.181 44.9709 228.4 -86.9012 -160.743
2286 628.911 519.187 44.9597 228.5 -80.8373 74.1831
2287 629.011 519.193 44.9485 228.6 -85.0562 53.536
2288 629.111 519.199 44.9373 228.7 -79.5491 121.413
2289 629.21 519.205 44.9261 228.8 -77.042 95.0007
2290 629.31 519.211 44.9149 228.9 -80.3372 99.3123
2291 629.41 519.217 44.9038 229 -75.875 107.875
2292 629.51 519.223 44.8926 229.1 -78.3198 114.784
2293 629.61 519.229 44.8814 229.2 -80.4352 131.384
2294 629.709 519.235 44.8702 229.3 -86.9474 26.6719
2295 629.809 519.241 44.859 229.4 -85.7386 6.83809
2296 629.909 519.247 44.8478 229.5 -76.9576 34.3122
2297 630.009 519.253 44.8366 229.6 -77.9667 42.619
2298 630.109 519.259 44.8254 229.7 -78.8123 77.5979
2299 630.209 519.265 44.8142 229.8 -86.0667 48.0558
2300 630.308 519.271 44.803 229.9 -90.7415 174.949
2301 630.408 519.277 44.7919 230 -84.1363 -31.5477
2302 630.508 519.283 44.7807 230.1 -80.1288 -57.3855
2303 630.608 519.289 44.7695 230.2 -84.9239 10.1233
2304 630.708 519.295 44.7583 230.3 -80.0619 -19.5976
2305 630.807 519.301 44.7471 230.4 -88.6336 -12.3554
2306 630.907 519.307 44.7359 230.5 -82.8617 -25.6768
2307 631.007 519.313 44.7247 230.6 -83.1835 -25.5434
2308 631.107 519.319 44.7135 230.7 -79.7857 -31.9778
2309 631.207 519.325 44.7023 230.8 -85.2657 -149.345
2310 631.307 519.331 44.6911 230.9 -93.5998 -71.8896
2311 631.406 519.337 44.68 231 -74.8459 -143.674
2312 631.506 519.343 44.6688 231.1 -77.1866 -169.126
2313 631.606 519.349 44.6576 231.2 -77.9539 -122.737
2314 631.706 519.355 44.6464 231.3 -81.5646 168.392
2315 631.806 519.361 44.6352 231.4 -84.3594 120.257
2316 631.906 519.366 44.624 231.5 -79.4336 72.9103
2317 632.005 519.372 44.6128 231.6 -81.1036 49.4011
2318 632.105 519.378 44.6016 231.7 -78.3115 65.7053
2319 632.205 519.384 44.5904 231.8 -77.7509 9.2004
2320 632.305 519.39 44.5792 231.9 -87.5081 65.7846
2321 632.405 519.396 44.568 232 -79.6922 6.99156
2322 632.504 519.402 44.5569 232.1 -90.2114 -88.9784
2323 632.604 519.408 44.5457 232.2 -91.5368 -23.7656
2324 632.704 519.414 44.5345 232.3 -83.7907 -116.069
2325 632.804 519.42 44.5233 232.4 -86.6408 -98.9069
2326 632.904 519.426 44.5121 232.5 -78.4654 -149.422
2327 633.004 519.432 44.5009 232.6 -83.7142 -147.9
2328 633.103 519.438 44.4897 232.7 -78.5126 -170.098
2329 633.203 519.444 44.4785 232.8 -80.7665 131.807
2330 633.303 519.45 44.4673 232.9 -81.1667 121.301
2331 633.403 519.456 44.4561 233 -77.8987 56.6663
2332 633.503 519.462 44.445 233.1 -82.069 54.3814
2333 633.602 519.468 44.4338 233.2 -75.6685 -1.30113
2334 633.702 519.474 44.4226 233.3 -78.3804 -59.8397
2335 633.802 519.48 44.4114 233.4 -80.4215 -65.5873
2336 633.902 519.486 44.4002 233.5 -74.672 -103.297
2337 633.955 519.425 44.3956 233.6 -83.6529 -149.647
2338 633.984 519.33 44.3944 233.7 -79.9002 -116.057
2339 634.013 519.234 44.3933 233.8 -78.1989 -2.24416
2340 634.042 519.138 44.3921 233.9 -80.1531 55.1103
2341 634.072 519.043 44.391 234 -84.2911 140.503
2342 634.101 518.947 44.3898 234.1 -79.7723 -176.619
2343 634.13 518.851 44.3886 234.2 -80.5537 -75.1559
2344 634.159 518.756 44.3875 234.3 -82.9081 -82.0115
2345 634.188 518.66 44.3863 234.4 -80.0505 18.3652
2346 634.217 518.564 44.3851 234.5 -83.4663 106.809
2347 634.246 518.469 44.384 234.6 -82.7513 108.149
2348 634.275 518.373 44.3828 234.7 -86.816 -163.83
2349 634.304 518.277 44.3817 234.8 -82.7187 -169.491
2350 634.333 518.182 44.3805 234.9 -79.1199 -48.6637
2351 634.363 518.086 44.3793 235 -89.6375 -103.897
2352 634.392 517.99 44.3782 235.1 -80.636 -12.3967
2353 634.421 517.895 44.377 235.2 -80.7279 27.0907
2354 634.45 517.799 44.3758 235.3 -89.7589 162.95
2355 634.479 517.703 44.3747 235.4 -77.3992 35.5383
2356 634.508 517.608 44.3735 235.5 -81.199 172.128
2357 634.537 517.512 44.3724 235.6 -86.573 18.7514
2358 634.566 517.416 44.3712 235.7 -92.023 -179.709
2359 634.595 517.321 44.37 235.8 -86.3982 -151.421
2360 634.625 517.225 44.3689 235.9 -84.716 -9.54407
2361 634.654 517.129 44.3677 236 -78.4455 -172.535
2362 634.683 517.033 44.3666 236.1 -79.1914 1.66182
2363 634.712 516.938 44.3654 236.2 -80.3043 -138.498
2364 634.741 516.842 44.3642 236.3 -88.1927 42.8634
2365 634.77 516.746 44.3631 236.4 -79.538 -76.9087
2366 634.799 516.651 44.3619 236.5 -78.3551 163.738
2367 634.828 516.555 44.3607 236.6 -80.2456 -6.70526
2368 634.857 516.459 44.3596 236.7 -79.865 -173.086
2369 634.886 516.364 44.3584 236.8 -79.9317 56.7232
2370 634.916 516.268 44.3573 236.9 -80.9396 -97.3168
2371 634.945 516.172 44.3561 237 -84.8078 106.911
2372 634.974 516.077 44.3549 237.1 -87.1053 -59.9215
2373 635.003 515.981 44.3538 237.2 -82.3021 -152.314
2374 635.032 515.885 44.3526 237.3 -79.4476 69.3328
2375 635.061 515.79 44.3514 237.4 -79.5583 -117.372
2376 635.09 515.694 44.3503 237.5 -79.0919 75.1914
2377 635.119 515.598 44.3491 237.6 -90.3029 -117.578
2378 635.148 515.503 44.348 237.7 -104.562 1.19529
2379 635.177 515.407 44.3468 237.8 -83.4013 48.2606
2380 635.207 515.311 44.3456 237.9 -78.8067 -118.044
2381 635.236 515.216 44.3445 238 -79.8953 50.7102
2382 635.265 515.12 44.3433 238.1 -82.1358 -122.399
2383 635.294 515.024 44.3421 238.2 -99.7043 -148.839
2384 635.323 514.929 44.341 238.3 -89.3057 49.6697
2385 635.352 514.833 44.3398 238.4 -83.227 -154.233
2386 635.381 514.737 44.3387 238.5 -81.2062 47.7368
2387 635.41 514.642 44.3375 238.6 -88.8981 -109.502
2388 635.439 514.546 44.3363 238.7 -90.029 62.7719
2389 635.469 514.45 44.3352 238.8 -84.3518 -76.4446
2390 635.498 514.355 44.334 238.9 -84.1199 133.282
2391 635.527 514.259 44.3328 239 -88.5937 -20.436
2392 635.556 514.163 44.3317 239.1 -88.6682 -174.24
2393 635.585 514.068 44.3305 239.2 -86.9606 44.2915
2394 635.614 513.972 44.3294 239.3 -82.2187 -164.645
2395 635.643 513.876 44.3282 239.4 -87.9125 55.0542
2396 635.672 513.781 44.327 239.5 -106.042 -62.9928
2397 635.701 513.685 44.3259 239.6 -102.675 -46.9079
2398 635.73 513.589 44.3247 239.7 -86.1826 -26.3325
2399 635.76 513.494 44.3235 239.8 -85.0191 -171.992
2400 635.789 513.398 44.3224 239.9 -87.0378 -1.24954
2401 635.818 513.302 44.3212 240 -87.8558 -176.4
2402 635.847 513.207 44.3201 240.1 -96.2902 56.2006
2403 635.876 513.111 44.3189 240.2 -90.9003 -173.495
2404 635.905 513.015 44.3177 240.3 -93.8983 46.4186
2405 635.934 512.92 44.3166 240.4 -95.1022 -33.4702
2406 635.963 512.824 44.3154 240.5 -88.9784 -144.839
2407 635.992 512.728 44.3142 240.6 -86.1308 -10.9385
2408 636.021 512.633 44.3131 240.7 -85.2765 -171.794
2409 636.051 512.537 44.3119 240.8 -90.8337 -47.2081
2410 636.08 512.441 44.3108 240.9 -89.8325 147.124
2411 636.109 512.346 44.3096 241 -91.6599 91.4901
2412 636.138 512.25 44.3084 241.1 -97.7367 -70.4994
2413 636.167 512.154 44.3073 241.2 -86.7147 76.3351
2414 636.196 512.059 44.3061 241.3 -90.1274 -77.2039
2415 636.225 511.963 44.305 241.4 -94.8257 -17.0581
2416 636.254 511.867 44.3038 241.5 -97.2867 43.8116
2417 636.283 511.772 44.3026 241.6 -86.3822 -126.509
2418 636.313 511.676 44.3015 241.7 -94.0478 58.4259
2419 636.342 511.58 44.3003 241.8 -91.1024 127.956
2420 636.371 511.485 44.2991 241.9 -100.383 -135.418
2421 636.4 511.389 44.298 242 -88.8786 47.7712
2422 636.429 511.293 44.2968 242.1 -93.3122 -81.3857
2423 636.458 511.198 44.2957 242.2 -96.1068 -127.798
2424 636.487 511.102 44.2945 242.3 -90.5825 -1.137
2425 636.516 511.006 44.2933 242.4 -81.4375 -171.866
2426 636.545 510.911 44.2922 242.5 -100.126 -3.26447
2427 636.574 510.815 44.291 242.6 -86.201 160.44
2428 636.604 510.719 44.2898 242.7 -93.7597 136.991
2429 636.633 510.624 44.2887 242.8 -87.707 -88.6353
2430 636.662 510.528 44.2875 242.9 -102.065 79.9008
2431 636.691 510.432 44.2864 243 -88.1163 -98.5637
2432 636.72 510.337 44.2852 243.1 -90.1882 -68.9554
2433 636.749 510.241 44.284 243.2 -87.5159 -22.5676
2434 636.778 510.145 44.2829 243.3 -103.805 177.17
2435 636.807 510.049 44.2817 243.4 -86.1494 -28.7641
2436 636.836 509.954 44.2805 243.5 -87.5568 30.1846
2437 636.865 509.858 44.2794 243.6 -89.2837 46.3626
2438 636.895 509.762 44.2782 243.7 -99.4986 -28.0158
2439 636.924 509.667 44.2771 243.8 -95.1958 13.6064
2440 636.953 509.571 44.2759 243.9 -98.1449 -0.0572037
2441 636.982 509.475 44.2747 244 -91.9317 63.5883
2442 637.011 509.38 44.2736 244.1 -90.8909 56.1927
2443 637.04 509.284 44.2724 244.2 -86.8861 90.4236
2444 637.069 509.188 44.2712 244.3 -94.3706 -174.24
2445 637.098 509.093 44.2701 244.4 -91.0291 -84.3201
2446 637.127 508.997 44.2689 244.5 -89.8142 -7.61913
2447 637.157 508.901 44.2678 244.6 -83.9629 60.5602
2448 637.186 508.806 44.2666 244.7 -81.5937 117.792
2449 637.215 508.71 44.2654 244.8 -90.5199 -141.957
2450 637.244 508.614 44.2643 244.9 -92.023 -65.0633
2451 637.273 508.519 44.2631 245 -86.7683 -15.8333
2452 637.302 508.423 44.2619 245.1 -85.511 91.9098
2453 637.331 508.327 44.2608 245.2 -92.173 76.8173
2454 637.36 508.232 44.2596 245.3 -88.4482 103.241
2455 637.389 508.136 44.2585 245.4 -91.7079 -114.316
2456 637.418 508.04 44.2573 245.5 -88.9129 -86.6935
2457 637.448 507.945 44.2561 245.6 -85.932 -6.27231
2458 637.477 507.849 44.255 245.7 -85.7428 94.5269
2459 637.506 507.753 44.2538 245.8 -90.8801 168.36
2460 637.535 507.658 44.2526 245.9 -93.9511 -91.8235
2461 637.564 507.562 44.2515 246 -96.9555 -38.9602
2462 637.593 507.466 44.2503 246.1 -95.7503 163.513
2463 637.622 507.371 44.2492 246.2 -91.9182 -115.818
2464 637.651 507.275 44.248 246.3 -93.1632 9.47868
2465 637.68 507.179 44.2468 246.4 -91.8087 47.988
2466 637.709 507.084 44.2457 246.5 -89.2589 131.653
2467 637.739 506.988 44.2445 246.6 -87.4419 -162.733
2468 637.768 506.892 44.2434 246.7 -94.2578 -130.372
2469 637.797 506.797 44.2422 246.8 -93.8478 -35.6671
2470 637.826 506.701 44.241 246.9 -85.9626 8.20193
2471 637.855 506.605 44.2399 247 -89.5244 69.0315
2472 637.884 506.51 44.2387 247.1 -87.0537 143.96
2473 637.913 506.414 44.2375 247.2 -85.4009 -169.792
2474 637.942 506.318 44.2364 247.3 -85.9645 -79.8895
2475 637.971 506.223 44.2352 247.4 -87.8316 -14.9962
2476 638.001 506.127 44.2341 247.5 -93.9964 76.7695
2477 638.03 506.031 44.2329 247.6 -88.3796 139.244
2478 638.059 505.936 44.2317 247.7 -92.6088 159.788
2479 638.088 505.84 44.2306 247.8 -95.8506 61.6516
2480 638.117 505.744 44.2294 247.9 -92.7903 -159.1
2481 638.146 505.649 44.2282 248 -89.873 -116.576
2482 638.175 505.553 44.2271 248.1 -91.1578 -25.213
2483 638.204 505.457 44.2259 248.2 -87.5756 21.1778
2484 638.233 505.362 44.2248 248.3 -88.7646 111.429
2485 638.262 505.266 44.2236 248.4 -84.9724 -163.912
2486 638.292 505.17 44.2224 248.5 -92.5236 -134.191
2487 638.321 505.075 44.2213 248.6 -93.1025 2.39958
2488 638.35 504.979 44.2201 248.7 -91.5089 52.7271
2489 638.379 504.883 44.2189 248.8 -91.9381 -177.405
2490 638.408 504.788 44.2178 248.9 -90.9389 -99.9272
2491 638.437 504.692 44.2166 249 -89.1502 7.00633
2492 638.466 504.596 44.2155 249.1 -88.4349 78.3658
2493 638.495 504.501 44.2143 249.2 -84.2335 144.296
2494 638.524 504.405 44.2131 249.3 -81.5706 -156.973
2495 638.553 504.309 44.212 249.4 -84.0981 -62.1312
2496 638.583 504.214 44.2108 249.5 -81.6915 -1.04636
2497 638.612 504.118 44.2096 249.6 -83.9001 59.6985
2498 638.641 504.022 44.2085 249.7 -80.7011 138.032
2499 638.67 503.927 44.2073 249.8 -81.4106 -162.939
2500 638.699 503.831 44.2062 249.9 -81.7535 -85.1439
2501 638.728 503.735 44.205 250 -83.3658 -31.0517
2502 638.757 503.64 44.2038 250.1 -84.1367 42.8859
2503 638.786 503.544 44.2027 250.2 -84.2318 101.765
2504 638.815 503.448 44.2015 250.3 -86.8837 -156.503
2505 638.845 503.353 44.2003 250.4 -87.6711 -110.213
2506 638.874 503.257 44.1992 250.5 -96.5096 -0.638152
2507 638.903 503.161 44.198 250.6 -89.8002 47.3543
2508 638.932 503.065 44.1969 250.7 -94.3925 166.808
2509 638.961 502.97 44.1957 250.8 -86.2085 -144.212
2510 638.99 502.874 44.1945 250.9 -90.5797 -68.0577
2511 639.019 502.778 44.1934 251 -87.5238 -3.1308
2512 639.048 502.683 44.1922 251.1 -89.6012 61.9788
2513 639.077 502.587 44.191 251.2 -84.62 133.509
2514 639.106 502.491 44.1899 251.3 -86.9475 -169.509
2515 639.136 502.396 44.1887 251.4 -87.1416 -99.3653
2516 639.165 502.3 44.1876 251.5 -93.7001 -55.3622
2517 639.173 502.201 44.1888 251.6 -91.2324 -49.9614
2518 639.173 502.101 44.191 251.7 -82.1231 -13.0492
2519 639.173 502.001 44.1931 251.8 -86.2662 33.1811
2520 639.173 501.901 44.1953 251.9 -85.1788 78.5505
2521 639.173 501.801 44.1974 252 -96.1673 -162.318
2522 639.173 501.701 44.1996 252.1 -94.0002 -149.735
2523 639.173 501.601 44.2017 252.2 -87.4835 -45.9698
2524 639.173 501.501 44.2039 252.3 -84.5617 -36.5007
2525 639.173 501.401 44.206 252.4 -81.5447 29.0543
2526 639.173 501.301 44.2082 252.5 -85.0663 59.8085
2527 639.173 501.201 44.2103 252.6 -85.5989 127.201
2528 639.173 501.101 44.2125 252.7 -102.056 76.1172
2529 639.173 501.001 44.2147 252.8 -90.8541 -97.3906
2530 639.173 500.901 44.2168 252.9 -88.8415 -18.094
2531 639.173 500.801 44.219 253 -82.6591 0.111017
2532 639.173 500.701 44.2211 253.1 -82.7315 57.0173
2533 639.173 500.601 44.2233 253.2 -83.0483 71.6802
2534 639.173 500.501 44.2254 253.3 -89.5434 122.785
2535 639.173 500.401 44.2276 253.4 -88.123 123.037
2536 639.173 500.301 44.2297 253.5 -103.119 -74.8112
2537 639.173 500.201 44.2319 253.6 -91.9998 -25.3058
2538 639.173 500.101 44.234 253.7 -82.7858 32.7614
2539 639.173 500.001 44.2362 253.8 -84.3409 82.2833
2540 639.173 499.901 44.2383 253.9 -83.3264 106.016
2541 639.173 499.801 44.2405 254 -88.7302 132.077
2542 639.173 499.701 44.2426 254.1 -85.4336 167.287
2543 639.173 499.601 44.2448 254.2 -96.5174 -104.03
2544 639.173 499.501 44.2469 254.3 -92.0409 -27.1006
2545 639.173 499.401 44.2491 254.4 -85.7396 66.3421
2546 639.173 499.301 44.2512 254.5 -86.4622 88.4731
2547 639.173 499.201 44.2534 254.6 -83.6464 123.846
2548 639.173 499.101 44.2556 254.7 -84.1987 139.241
2549 639.174 499.001 44.2577 254.8 -83.525 -179.086
2550 639.174 498.901 44.2599 254.9 -88.7407 -130.164
2551 639.174 498.801 44.262 255 -94.4241 -85.4329
2552 639.174 498.701 44.2642 255.1 -86.915 51.7178
2553 639.174 498.601 44.2663 255.2 -83.4339 96.5513
2554 639.174 498.501 44.2685 255.3 -81.2119 129.086
2555 639.174 498.401 44.2706 255.4 -81.9546 160.739
2556 639.174 498.301 44.2728 255.5 -83.1506 -169.618
2557 639.174 498.201 44.2749 255.6 -88.9507 -134.738
2558 639.174 498.101 44.2771 255.7 -97.3951 -66.388
2559 639.174 498.001 44.2792 255.8 -91.9728 65.5502
2560 639.174 497.901 44.2814 255.9 -86.1281 102.508
2561 639.174 497.801 44.2835 256 -83.3886 137.959
2562 639.174 497.701 44.2857 256.1 -82.0796 165.306
2563 639.174 497.601 44.2878 256.2 -82.8074 -166.053
2564 639.174 497.501 44.29 256.3 -84.4249 -132.17
2565 639.174 497.401 44.2922 256.4 -90.3219 -98.2443
2566 639.174 497.301 44.2943 256.5 -100.111 20.8357
2567 639.174 497.201 44.2965 256.6 -86.0963 114.643
2568 639.174 497.101 44.2986 256.7 -82.8438 143.951
2569 639.174 497.001 44.3008 256.8 -81.4901 174.939
2570 639.174 496.901 44.3029 256.9 -83.1174 -155.519
2571 639.174 496.801 44.3051 257 -85.2542 -126.353
2572 639.174 496.701 44.3072 257.1 -95.4175 -115.421
2573 639.174 496.601 44.3094 257.2 -99.6431 131.51
2574 639.174 496.501 44.3115 257.3 -86.8447 149.527
2575 639.174 496.401 44.3137 257.4 -84.5405 170.242
2576 639.174 496.301 44.3158 257.5 -82.7231 -165.677
2577 639.174 496.201 44.318 257.6 -83.4356 -139.225
2578 639.174 496.101 44.3201 257.7 -85.0577 -120.665
2579 639.174 496.001 44.3223 257.8 -92.3567 -87.2256
2580 639.174 495.901 44.3244 257.9 -100.708 167.276
2581 639.174 495.801 44.3266 258 -87.6593 139.026
2582 639.174 495.701 44.3287 258.1 -83.1365 175.232
2583 639.175 495.601 44.3309 258.2 -81.7093 -159.967
2584 639.175 495.501 44.3331 258.3 -81.0497 -126.952
2585 639.175 495.401 44.3352 258.4 -83.7992 -93.5364
2586 639.175 495.301 44.3374 258.5 -88.6357 -59.5709
2587 639.175 495.201 44.3395 258.6 -92.7382 64.5326
2588 639.175 495.101 44.3417 258.7 -86.6609 142.367
2589 639.175 495.001 44.3438 258.8 -82.2542 172.301
2590 639.175 494.901 44.346 258.9 -80.019 -155.742
2591 639.175 494.801 44.3481 259 -80.4462 -131.241
2592 639.175 494.701 44.3503 259.1 -80.669 -102.636
2593 639.175 494.601 44.3524 259.2 -83.9254 -74.9003
2594 639.175 494.501 44.3546 259.3 -87.9907 -37.3308
2595 639.175 494.401 44.3567 259.4 -94.7875 72.4726
2596 639.175 494.301 44.3589 259.5 -86.7938 146.488
2597 639.175 494.201 44.361 259.6 -81.8204 -175.676
2598 639.175 494.101 44.3632 259.7 -80.0857 -145.846
2599 639.175 494.001 44.3653 259.8 -79.8667 -116.743
2600 639.175 493.901 44.3675 259.9 -81.6116 -85.4136
2601 639.175 493.801 44.3697 260 -85.2554 -54.7167
2602 639.175 493.701 44.3718 260.1 -92.5309 -11.3297
2603 639.175 493.601 44.374 260.2 -93.9693 159.389
2604 639.175 493.501 44.3761 260.3 -83.4901 -167.706
2605 639.175 493.401 44.3783 260.4 -82.6965 -147.373
2606 639.175 493.301 44.3804 260.5 -83.3917 -112.514
2607 639.175 493.201 44.3826 260.6 -83.822 -74.7992
2608 639.175 493.101 44.3847 260.7 -85.275 -53.5528
2609 639.175 493.001 44.3869 260.8 -89.9066 -52.9383
2610 639.175 492.901 44.389 260.9 -95.5973 -170.847
2611 639.175 492.801 44.3912 261 -85.2762 -172.501
2612 639.175 492.701 44.3933 261.1 -83.069 -154.272
2613 639.175 492.601 44.3955 261.2 -83.0511 -120.606
2614 639.175 492.501 44.3976 261.3 -82.6123 -79.1283
2615 639.175 492.401 44.3998 261.4 -81.7068 -43.6
2616 639.175 492.301 44.4019 261.5 -85.2564 -19.972
2617 639.176 492.201 44.4041 261.6 -93.7134 75.5444
2618 639.176 492.101 44.4062 261.7 -88.3245 165.708
2619 639.176 492.001 44.4084 261.8 -83.7796 175.011
2620 639.176 491.901 44.4106 261.9 -81.3141 -137.373
2621 639.176 491.801 44.4127 262 -83.48 -78.9458
2622 639.176 491.701 44.4149 262.1 -84.9992 -55.1102
2623 639.176 491.601 44.417 262.2 -83.4724 -45.1444
2624 639.176 491.501 44.4192 262.3 -88.6678 43.8255
2625 639.176 491.401 44.4213 262.4 -90.4764 130.117
2626 639.176 491.301 44.4235 262.5 -92.0132 -161.067
2627 639.176 491.201 44.4256 262.6 -83.3833 -159.682
2628 639.176 491.101 44.4278 262.7 -82.0072 -115.062
2629 639.176 491.001 44.4299 262.8 -85.438 -70.1906
2630 639.176 490.901 44.4321 262.9 -88.8659 -53.3043
2631 639.176 490.801 44.4342 263 -83.9253 9.56623
2632 639.176 490.701 44.4364 263.1 -83.9414 65.6746
2633 639.176 490.601 44.4385 263.2 -86.5105 166.424
2634 639.176 490.501 44.4407 263.3 -86.1668 179.484
2635 639.176 490.401 44.4428 263.4 -81.164 -145.337
2636 639.176 490.301 44.445 263.5 -82.1159 -104.573
2637 639.176 490.201 44.4472 263.6 -90.1767 -40.6402
2638 639.176 490.101 44.4493 263.7 -89.146 -24.6639
2639 639.176 490.001 44.4515 263.8 -87.7898 35.6057
2640 639.176 489.901 44.4536 263.9 -86.7378 118.902
2641 639.176 489.801 44.4558 264 -86.9249 -151.75
2642 639.176 489.701 44.4579 264.1 -85.6508 -160.543
2643 639.176 489.601 44.4601 264.2 -84.4815 -131.536
2644 639.176 489.501 44.4622 264.3 -85.2474 -63.7596
2645 639.176 489.401 44.4644 264.4 -90.3976 0.815997
2646 639.176 489.301 44.4665 264.5 -86.3022 9.96231
2647 639.176 489.201 44.4687 264.6 -85.1215 52.1691
2648 639.176 489.101 44.4708 264.7 -84.2296 128.486
2649 639.176 489.001 44.473 264.8 -85.9917 164.215
2650 639.176 488.901 44.4751 264.9 -83.8135 179.766
2651 639.177 488.801 44.4773 265 -84.7832 -137.065
2652 639.177 488.701 44.4794 265.1 -85.5046 -44.9955
2653 639.177 488.601 44.4816 265.2 -87.533 -4.14263
2654 639.177 488.501 44.4838 265.3 -85.8716 27.2116
2655 639.177 488.401 44.4859 265.4 -86.0626 73.0383
2656 639.177 488.301 44.4881 265.5 -82.5669 142.743
2657 639.177 488.201 44.4902 265.6 -86.3189 173.927
2658 639.177 488.101 44.4924 265.7 -86.6371 -168.083
2659 639.177 488.001 44.4945 265.8 -88.1795 -100.808
2660 639.177 487.901 44.4967 265.9 -85.025 -30.2959
2661 639.177 487.801 44.4988 266 -87.3028 12.1531
2662 639.177 487.701 44.501 266.1 -87.7431 19.0431
2663 639.177 487.601 44.5031 266.2 -85.5262 77.1481
2664 639.177 487.501 44.5053 266.3 -86.3464 135.489
2665 639.177 487.401 44.5074 266.4 -91.5122 150.232
2666 639.177 487.301 44.5095 266.5 -93.358 -168.212
2667 639.177 487.201 44.5117 266.6 -86.2516 -80.7359
2668 639.178 487.101 44.5138 266.7 -83.3089 -26.125
2669 639.178 487.001 44.516 266.8 -86.3095 1.10522
2670 639.178 486.901 44.5181 266.9 -83.7362 30.3608
2671 639.178 486.801 44.5203 267 -81.4888 73.0333
2672 639.178 486.701 44.5224 267.1 -83.2621 114.834
2673 639.178 486.601 44.5245 267.2 -91.2658 157.959
2674 639.178 486.501 44.5267 267.3 -89.7401 -151.92
2675 639.178 486.401 44.5288 267.4 -83.1619 -83.4079
2676 639.179 486.301 44.531 267.5 -83.8686 -30.6608
2677 639.179 486.201 44.5331 267.6 -85.9013 10.6003
2678 639.179 486.101 44.5353 267.7 -84.9192 31.9505
2679 639.179 486.001 44.5374 267.8 -80.7251 66.4497
2680 639.179 485.901 44.5395 267.9 -86.1533 121.494
2681 639.179 485.801 44.5417 268 -96.8446 -158.065
2682 639.179 485.701 44.5438 268.1 -90.704 -129.297
2683 639.179 485.601 44.546 268.2 -84.6141 -106.645
2684 639.18 485.501 44.5481 268.3 -84.5252 -37.7104
2685 639.18 485.401 44.5503 268.4 -87.1402 18.607
2686 639.18 485.301 44.5524 268.5 -85.5632 23.1325
2687 639.18 485.201 44.5545 268.6 -83.2144 48.807
2688 639.18 485.101 44.5567 268.7 -88.3142 127.399
2689 639.18 485.001 44.5588 268.8 -89.8249 -166.853
2690 639.18 484.901 44.561 268.9 -86.4089 -152.611
2691 639.18 484.801 44.5631 269 -83.7526 -128.034
2692 639.181 484.701 44.5652 269.1 -83.0028 -57.6643
2693 639.181 484.601 44.5674 269.2 -84.9687 -19.0668
2694 639.181 484.501 44.5695 269.3 -83.5248 -19.9979
2695 639.181 484.401 44.5717 269.4 -85.6937 21.7709
2696 639.181 484.301 44.5738 269.5 -85.9399 120.516
2697 639.181 484.201 44.576 269.6 -85.0415 -178.538
2698 639.181 484.101 44.5781 269.7 -87.8827 -172.688
2699 639.181 484.001 44.5802 269.8 -84.4476 -127.172
2700 639.182 483.901 44.5824 269.9 -82.058 -80.4776
2701 639.182 483.801 44.5845 270 -85.2573 -41.662
2702 639.182 483.701 44.5867 270.1 -90.5955 -49.3147
2703 639.182 483.601 44.5888 270.2 -87.8826 30.4806
2704 639.182 483.501 44.591 270.3 -85.0827 119.419
2705 639.182 483.401 44.5931 270.4 -85.6635 176.123
2706 639.182 483.301 44.5952 270.5 -87.1122 -159.685
2707 639.182 483.201 44.5974 270.6 -83.3364 -156.597
2708 639.182 483.101 44.5995 270.7 -80.6715 -99.3504
2709 639.183 483.001 44.6017 270.8 -82.8166 -48.0295
2710 639.183 482.901 44.6038 270.9 -87.9856 -44.3917
2711 639.183 482.801 44.606 271 -91.6234 -41.3092
2712 639.183 482.701 44.6081 271.1 -90.1287 80.8529
2713 639.183 482.601 44.6102 271.2 -84.3824 153.087
2714 639.183 482.501 44.6124 271.3 -89.0932 154.256
2715 639.183 482.401 44.6145 271.4 -83.7157 151.451
2716 639.183 482.301 44.6167 271.5 -81.3111 -157.012
2717 639.184 482.201 44.6188 271.6 -81.604 -109.687
2718 639.184 482.101 44.6209 271.7 -88.2944 -94.7988
2719 639.184 482.001 44.6231 271.8 -99.9178 -67.2722
2720 639.184 481.901 44.6252 271.9 -82.2572 65.9469
2721 639.184 481.801 44.6274 272 -79.5806 95.8434
2722 639.184 481.701 44.6295 272.1 -85.379 124.482
2723 639.184 481.601 44.6317 272.2 -88.0367 178.492
2724 639.184 481.501 44.6338 272.3 -81.9873 -174.457
2725 639.185 481.401 44.6359 272.4 -82.6784 -143.06
2726 639.185 481.301 44.6381 272.5 -93.0935 -104.487
2727 639.185 481.201 44.6402 272.6 -90.8573 -4.49624
2728 639.185 481.101 44.6424 272.7 -81.5515 14.529
2729 639.185 481.001 44.6445 272.8 -80.1101 48.0012
2730 639.185 480.901 44.6467 272.9 -83.9131 102.681
2731 639.185 480.801 44.6488 273 -84.8996 129.578
2732 639.185 480.701 44.6509 273.1 -82.705 149.679
2733 639.186 480.601 44.6531 273.2 -84.8394 -173.635
2734 639.186 480.501 44.6552 273.3 -88.4371 -51.452
2735 639.186 480.401 44.6574 273.4 -85.9607 -9.66454
2736 639.186 480.301 44.6595 273.5 -85.7844 -10.711
2737 639.186 480.201 44.6617 273.6 -83.563 23.9535
2738 639.186 480.101 44.6638 273.7 -81.4693 70.9881
2739 639.186 480.001 44.6659 273.8 -84.5668 110.078
2740 639.186 479.901 44.6681 273.9 -99.0466 59.0958
2741 639.187 479.801 44.6702 274 -83.2632 122.616
2742 639.187 479.701 44.6724 274.1 -85.8412 -85.2705
2743 639.187 479.601 44.6745 274.2 -88.0659 -85.0815
2744 639.187 479.501 44.6766 274.3 -86.814 -32.1694
2745 639.187 479.401 44.6788 274.4 -81.2169 -85.3218
2746 639.187 479.301 44.6809 274.5 -78.9038 19.3707
2747 639.187 479.201 44.6831 274.6 -95.2232 19.4789
2748 639.187 479.101 44.6852 274.7 -86.4352 44.0115
2749 639.188 479.001 44.6874 274.8 -99.3149 57.5915
2750 639.188 478.901 44.6895 274.9 -82.3035 151.044
2751 639.188 478.801 44.6916 275 -82.8267 -98.9001
2752 639.188 478.701 44.6938 275.1 -85.071 -140.863
2753 639.188 478.601 44.6959 275.2 -80.3238 -72.6634
2754 639.188 478.501 44.6981 275.3 -83.5592 -66.2148
2755 639.188 478.401 44.7002 275.4 -79.29 -4.55847
2756 639.188 478.301 44.7024 275.5 -95.0891 46.0593
2757 639.189 478.201 44.7045 275.6 -83.9824 22.612
2758 639.189 478.101 44.7066 275.7 -81.2184 141.19
2759 639.189 478.001 44.7088 275.8 -85.6907 166.098
2760 639.189 477.901 44.7109 275.9 -80.0393 -151.477
2761 639.189 477.801 44.7131 276 -84.498 -99.9402
2762 639.189 477.701 44.7152 276.1 -79.3394 -117.694
2763 639.189 477.601 44.7174 276.2 -80.4244 -38.6976
2764 639.189 477.501 44.7195 276.3 -95.8674 54.4201
2765 639.19 477.401 44.7216 276.4 -85.2308 29.8675
2766 639.19 477.301 44.7238 276.5 -81.2859 113.437
2767 639.19 477.201 44.7259 276.6 -81.2694 117.591
2768 639.19 477.101 44.7281 276.7 -77.1242 158.658
2769 639.19 477.001 44.7302 276.8 -84.4843 -155.113
2770 639.19 476.901 44.7323 276.9 -81.2904 179.015
2771 639.19 476.801 44.7345 277 -81.2741 -89.0325
2772 639.19 476.701 44.7366 277.1 -84.4949 14.8368
2773 639.191 476.601 44.7388 277.2 -83.9622 2.2366
2774 639.191 476.501 44.7409 277.3 -79.2158 49.2124
2775 639.191 476.401 44.7431 277.4 -83.297 73.2568
2776 639.191 476.301 44.7452 277.5 -79.1151 90.3641
2777 639.191 476.201 44.7473 277.6 -80.221 162.066
2778 639.191 476.101 44.7495 277.7 -96.248 172.481
2779 639.191 476.001 44.7516 277.8 -82.6808 -171.773
2780 639.191 475.901 44.7538 277.9 -79.1976 -79.479
2781 639.192 475.801 44.7559 278 -83.3825 -22.399
2782 639.192 475.701 44.7581 278.1 -82.8754 -41.313
2783 639.192 475.601 44.7602 278.2 -80.0391 14.3656
2784 639.192 475.501 44.7623 278.3 -82.8364 53.2471
2785 639.192 475.401 44.7645 278.4 -82.2449 51.6087
2786 639.192 475.301 44.7666 278.5 -81.9732 125.409
2787 639.192 475.201 44.7688 278.6 -92.9634 -162.433
2788 639.192 475.101 44.7709 278.7 -86.9023 -175.962
2789 639.193 475.001 44.7731 278.8 -79.5149 -115.589
2790 639.193 474.901 44.7752 278.9 -79.8268 -75.5974
2791 639.193 474.801 44.7773 279 -82.341 -65.3654
2792 639.193 474.701 44.7795 279.1 -81.3406 -51.9835
2793 639.193 474.601 44.7816 279.2 -82.5048 -18.0746
2794 639.193 474.501 44.7838 279.3 -91.5665 45.0323
2795 639.193 474.401 44.7859 279.4 -91.4826 110.327
2796 639.193 474.301 44.788 279.5 -85.7512 116.643
2797 639.194 474.201 44.7902 279.6 -80.9749 155.879
2798 639.194 474.101 44.7923 279.7 -81.0563 -173.816
2799 639.194 474.001 44.7945 279.8 -84.8326 -161.709
2800 639.194 473.901 44.7966 279.9 -84.7431 -144.702
2801 639.194 473.801 44.7988 280 -84.4207 -95.3488
2802 639.194 473.701 44.8009 280.1 -87.168 -76.1443
2803 639.139 473.635 44.8084 280.2 -87.8785 73.2686
2804 639.05 473.59 44.8193 280.3 -83.9422 27.3664
2805 638.961 473.545 44.8301 280.4 -93.0292 50.9099
2806 638.872 473.5 44.841 280.5 -88.1471 26.818
2807 638.782 473.454 44.8519 280.6 -83.7258 129.081
2808 638.693 473.409 44.8627 280.7 -86.8302 101.718
2809 638.604 473.364 44.8736 280.8 -81.5196 99.683
2810 638.515 473.319 44.8844 280.9 -84.0492 73.7673
2811 638.426 473.274 44.8953 281 -84.7637 95.0457
2812 638.336 473.228 44.9062 281.1 -89.9461 105.495
2813 638.247 473.183 44.917 281.2 -82.7877 130.654
2814 638.158 473.138 44.9279 281.3 -82.4483 113.649
2815 638.069 473.093 44.9387 281.4 -81.5017 114.791
2816 637.98 473.048 44.9496 281.5 -84.6959 72.218
2817 637.89 473.002 44.9605 281.6 -85.42 96.1597
2818 637.801 472.957 44.9713 281.7 -93.0002 153.294
2819 637.712 472.912 44.9822 281.8 -84.5771 124.723
2820 637.623 472.867 44.993 281.9 -82.7047 150.33
2821 637.533 472.822 45.0039 282 -81.2153 81.4533
2822 637.444 472.776 45.0147 282.1 -83.3074 106.092
2823 637.355 472.731 45.0256 282.2 -87.6388 31.5232
2824 637.266 472.686 45.0365 282.3 -84.0339 113.455
2825 637.177 472.641 45.0473 282.4 -90.137 133.794
2826 637.087 472.596 45.0582 282.5 -81.4518 77.3996
2827 636.998 472.55 45.069 282.6 -83.4924 87.8403
2828 636.909 472.505 45.0799 282.7 -83.3296 23.6495
2829 636.82 472.46 45.0908 282.8 -85.7463 47.3381
2830 636.731 472.415 45.1016 282.9 -95.5717 24.8248
2831 636.641 472.37 45.1125 283 -85.2716 43.865
2832 636.552 472.324 45.1233 283.1 -85.4974 33.885
2833 636.463 472.279 45.1342 283.2 -82.5894 6.85044
2834 636.374 472.234 45.1451 283.3 -82.2014 -38.8218
2835 636.285 472.189 45.1559 283.4 -79.8543 -60.0076
2836 636.195 472.144 45.1668 283.5 -83.9107 -46.1432
2837 636.106 472.098 45.1776 283.6 -86.2452 -58.481
2838 636.017 472.053 45.1885 283.7 -84.3692 -49.0389
2839 635.928 472.008 45.1994 283.8 -86.0024 -127.666
2840 635.839 471.963 45.2102 283.9 -77.6699 -135.757
2841 635.749 471.918 45.2211 284 -83.1385 -160.313
2842 635.66 471.872 45.2319 284.1 -88.4648 177.054
2843 635.571 471.827 45.2428 284.2 -90.4115 -66.2255
2844 635.482 471.782 45.2537 284.3 -91.488 44.7106
2845 635.393 471.737 45.2645 284.4 -82.4916 125.766
2846 635.303 471.692 45.2754 284.5 -80.6924 130.216
2847 635.214 471.646 45.2862 284.6 -82.0192 109.517
2848 635.125 471.601 45.2971 284.7 -89.0963 46.7536
2849 635.036 471.556 45.3079 284.8 -85.8384 -23.3999
2850 634.947 471.511 45.3188 284.9 -84.8229 -3.84928
2851 634.857 471.466 45.3297 285 -82.0395 0.668421
2852 634.768 471.42 45.3405 285.1 -84.1405 -15.3925
2853 634.679 471.375 45.3514 285.2 -84.1957 -81.0001
2854 634.59 471.33 45.3622 285.3 -78.4764 -129.082
2855 634.501 471.285 45.3731 285.4 -80.1821 -178.303
2856 634.411 471.24 45.384 285.5 -84.9554 108.875
2857 634.322 471.194 45.3948 285.6 -90.6141 101.42
2858 634.233 471.149 45.4057 285.7 -88.0639 77.8122
2859 634.144 471.104 45.4165 285.8 -89.931 75.7109
2860 634.055 471.059 45.4274 285.9 -85.3591 34.4745
2861 633.965 471.014 45.4383 286 -82.255 3.83274
2862 633.876 470.968 45.4491 286.1 -80.33 -43.1023
2863 633.787 470.923 45.46 286.2 -80.5306 -113.548
2864 633.698 470.878 45.4708 286.3 -83.6275 170.011
2865 633.609 470.833 45.4817 286.4 -86.9065 120.167
2866 633.519 470.788 45.4926 286.5 -90.2522 73.4334
2867 633.43 470.742 45.5034 286.6 -93.1116 88.8063
2868 633.341 470.697 45.5143 286.7 -89.5965 58.7774
2869 633.252 470.652 45.5251 286.8 -84.1842 40.3761
2870 633.163 470.607 45.536 286.9 -80.1399 -27.1931
2871 633.073 470.562 45.5469 287 -80.6238 -94.0446
2872 632.984 470.516 45.5577 287.1 -81.5002 -158.936
2873 632.895 470.471 45.5686 287.2 -84.7362 129.193
2874 632.806 470.426 45.5794 287.3 -85.2564 87.8987
2875 632.717 470.381 45.5903 287.4 -85.4889 -8.80429
2876 632.627 470.336 45.6011 287.5 -93.8265 -81.5942
2877 632.538 470.291 45.612 287.6 -99.002 9.06684
2878 632.449 470.245 45.6229 287.7 -83.6714 -68.097
2879 632.36 470.2 45.6337 287.8 -82.6278 -158.456
2880 632.271 470.155 45.6446 287.9 -82.0967 155.631
2881 632.181 470.11 45.6554 288 -80.6771 91.3217
2882 632.092 470.065 45.6663 288.1 -78.308 29.5739
2883 632.003 470.019 45.6772 288.2 -79.8511 -60.3497
2884 631.914 469.974 45.688 288.3 -84.0971 -103.825
2885 631.825 469.929 45.6989 288.4 -86.5551 -175.191
2886 631.735 469.884 45.7097 288.5 -84.9619 137.766
2887 631.646 469.839 45.7206 288.6 -104.757 -99.9006
2888 631.557 469.793 45.7315 288.7 -88.4588 63.9469
2889 631.468 469.748 45.7423 288.8 -83.285 16.948
2890 631.378 469.703 45.7532 288.9 -86.1466 -99.2805
2891 631.289 469.658 45.764 289 -82.3311 -129.934
2892 631.2 469.613 45.7749 289.1 -84.7252 144.032
2893 631.111 469.567 45.7858 289.2 -79.3043 43.6651
2894 631.022 469.522 45.7966 289.3 -89.7521 -11.0552
2895 630.932 469.477 45.8075 289.4 -82.9075 -111.869
2896 630.843 469.432 45.8183 289.5 -79.23 -169.503
2897 630.754 469.387 45.8292 289.6 -81.9044 7.56741
2898 630.665 469.341 45.8401 289.7 -85.5256 15.3911
2899 630.576 469.296 45.8509 289.8 -87.5078 37.5705
2900 630.486 469.251 45.8618 289.9 -80.2997 138.79
2901 630.397 469.206 45.8726 290 -88.0445 -137.272
2902 630.308 469.161 45.8835 290.1 -81.2622 -141.44
2903 630.219 469.115 45.8943 290.2 -81.7559 -69.0272
2904 630.13 469.07 45.9052 290.3 -81.3209 4.85121
2905 630.04 469.025 45.9161 290.4 -80.4416 -9.52232
2906 629.951 468.98 45.9269 290.5 -80.6948 87.4283
2907 629.862 468.935 45.9378 290.6 -79.1307 114.612
2908 629.773 468.889 45.9486 290.7 -90.5327 123.794
2909 629.684 468.844 45.9595 290.8 -77.1308 -152.557
2910 629.594 468.799 45.9704 290.9 -83.5863 -103.283
2911 629.505 468.754 45.9812 291 -86.5801 -75.9011
2912 629.416 468.709 45.9921 291.1 -80.1014 -40.9185
2913 629.327 468.663 46.0029 291.2 -86.0022 56.8581
2914 629.238 468.618 46.0138 291.3 -80.6684 95.2115
2915 629.148 468.573 46.0247 291.4 -77.64 67.7042
2916 629.059 468.528 46.0355 291.5 -80.4239 152.296
2917 628.97 468.483 46.0464 291.6 -85.1381 147.652
2918 628.881 468.437 46.0572 291.7 -90.1451 -173.773
2919 628.792 468.392 46.0681 291.8 -77.3509 -93.4804
2920 628.702 468.347 46.079 291.9 -83.1606 -94.3857
2921 628.613 468.302 46.0898 292 -84.0671 -78.8026
2922 628.524 468.257 46.1007 292.1 -79.7165 -32.2329
2923 628.435 468.211 46.1115 292.2 -84.823 72.8625
2924 628.346 468.166 46.1224 292.3 -79.7808 46.1564
2925 628.256 468.121 46.1332 292.4 -77.0167 34.5874
2926 628.167 468.076 46.1441 292.5 -88.9509 152.547
2927 628.078 468.031 46.155 292.6 -81.8232 144.524
2928 627.989 467.985 46.1658 292.7 -79.1757 125.344
2929 627.9 467.94 46.1767 292.8 -79.8058 177.176
2930 627.81 467.895 46.1875 292.9 -87.166 158.658
2931 627.721 467.85 46.1984 293 -89.2855 -122.091
2932 627.632 467.805 46.2093 293.1 -75.258 -115.666
2933 627.543 467.759 46.2201 293.2 -81.6632 -147.19
2934 627.454 467.714 46.231 293.3 -95.3288 113.943
2935 627.364 467.669 46.2418 293.4 -77.2023 -56.9534
2936 627.275 467.624 46.2527 293.5 -78.4889 -67.8428
2937 627.186 467.579 46.2636 293.6 -90.0154 -118.357
2938 627.097 467.533 46.2744 293.7 -83.2884 -30.5721
2939 627.008 467.488 46.2853 293.8 -78.1452 -0.967433
2940 626.918 467.443 46.2961 293.9 -81.63 -19.8457
2941 626.829 467.398 46.307 294 -83.5145 -65.2772
2942 626.74 467.353 46.3179 294.1 -79.7367 47.6181
2943 626.651 467.307 46.3287 294.2 -76.5586 27.6311
2944 626.562 467.262 46.3396 294.3 -81.324 -53.8749
2945 626.472 467.217 46.3504 294.4 -85.7686 83.69
2946 626.383 467.172 46.3613 294.5 -74.2557 48.1469
2947 626.294 467.127 46.3722 294.6 -81.1419 -33.8638
2948 626.205 467.081 46.383 294.7 -90.0375 148.175
2949 626.116 467.036 46.3939 294.8 -74.3779 56.333
2950 626.026 466.991 46.4047 294.9 -79.5776 11.2441
2951 625.937 466.946 46.4156 295 -88.3688 -156.77
2952 625.848 466.901 46.4264 295.1 -76.416 51.6551
2953 625.759 466.855 46.4373 295.2 -78.4542 9.08082
2954 625.669 466.81 46.4482 295.3 -90.6521 170.201
2955 625.58 466.765 46.459 295.4 -78.3153 51.1566
2956 625.491 466.72 46.4699 295.5 -77.9893 -23.6514
2957 625.402 466.675 46.4807 295.6 -96.8716 157.098
2958 625.313 466.63 46.4916 295.7 -77.6506 25.235
2959 625.223 466.584 46.5025 295.8 -78.3937 -45.3207
2960 625.134 466.539 46.5133 295.9 -96.7312 35.6039
2961 625.045 466.495 46.5242 296 -83.9205 -31.0768
2962 624.946 466.477 46.5355 296.1 -80.3729 59.5792
2963 624.848 466.459 46.5468 296.2 -77.2124 -39.0324
2964 624.75 466.441 46.5581 296.3 -96.4693 63.93
2965 624.651 466.422 46.5694 296.4 -78.4199 -66.0657
2966 624.553 466.404 46.5806 296.5 -80.5566 179.99
2967 624.455 466.386 46.5919 296.6 -85.0919 -98.3764
2968 624.356 466.368 46.6032 296.7 -76.6425 144.486
2969 624.258 466.35 46.6145 296.8 -89.888 5.80148
2970 624.16 466.331 46.6258 296.9 -78.687 102.141
2971 624.061 466.313 46.6371 297 -78.7801 -24.7445
2972 623.963 466.295 46.6484 297.1 -88.0941 55.9993
2973 623.865 466.277 46.6597 297.2 -76.5342 -72.9498
2974 623.766 466.259 46.671 297.3 -82.4713 -178.452
2975 623.668 466.24 46.6822 297.4 -82.1589 -151.73
2976 623.57 466.222 46.6935 297.5 -76.6926 102.617
2977 623.471 466.204 46.7048 297.6 -100.523 -22.9542
2978 623.373 466.186 46.7161 297.7 -76.7232 24.1998
2979 623.275 466.168 46.7274 297.8 -78.1657 -106.668
2980 623.176 466.149 46.7387 297.9 -86.062 -50.0516
2981 623.078 466.131 46.75 298 -75.9309 176.192
2982 622.98 466.113 46.7613 298.1 -84.8452 42.1572
2983 622.881 466.095 46.7725 298.2 -83.1408 87.2868
2984 622.783 466.077 46.7838 298.3 -75.6271 -28.8916
2985 622.685 466.058 46.7951 298.4 -88.8807 100.938
2986 622.586 466.04 46.8064 298.5 -77.9834 -132.361
2987 622.488 466.022 46.8177 298.6 -80.4587 88.6662
2988 622.39 466.004 46.829 298.7 -88.1926 175.388
2989 622.291 465.986 46.8403 298.8 -77.8759 -31.5894
2990 622.193 465.967 46.8516 298.9 -78.7811 -162.945
2991 622.095 465.949 46.8629 299 -79.1166 -146.464
2992 621.996 465.931 46.8741 299.1 -76.2465 80.1359
2993 621.898 465.913 46.8854 299.2 -100.973 114.941
2994 621.8 465.895 46.8967 299.3 -75.0325 -4.33483
2995 621.701 465.876 46.908 299.4 -75.2873 -134.637
2996 621.603 465.858 46.9193 299.5 -73.7229 143.677
2997 621.505 465.84 46.9306 299.6 -70.3251 -3.69674
2998 621.406 465.822 46.9419 299.7 -72.65 166.532
2999 621.308 465.804 46.9532 299.8 -70.7181 -46.1093
3000 621.21 465.785 46.9645 299.9 -70.4764 123.607
3001 621.111 465.767 46.9757 300 -90.5299 -41.3772
3002 621.013 465.749 46.987 300.1 -79.0114 -91.9511
3003 620.915 465.731 46.9983 300.2 -78.6676 -28.8725
3004 620.816 465.713 47.0096 300.3 -71.6814 131.17
3005 620.718 465.694 47.0209 300.4 -73.2111 -55.74
3006 620.62 465.676 47.0322 300.5 -78.4907 43.8841
3007 620.521 465.658 47.0435 300.6 -72.9639 -141.085
3008 620.423 465.64 47.0548 300.7 -69.7362 14.0569
3009 620.325 465.622 47.0661 300.8 -78.0346 118.464
3010 620.226 465.603 47.0773 300.9 -71.1367 -101.915
3011 620.128 465.585 47.0886 301 -70.4448 47.0097
3012 620.03 465.567 47.0999 301.1 -77.0252 160.44
3013 619.931 465.549 47.1112 301.2 -70.8294 -88.2616
3014 619.833 465.531 47.1225 301.3 -71.7537 75.9313
3015 619.735 465.512 47.1338 301.4 -78.2713 143.333
3016 619.636 465.494 47.1451 301.5 -71.101 -86.7365
3017 619.538 465.476 47.1585 301.6 -71.5464 72.6495
3018 619.44 465.458 47.1729 301.7 -72.2439 170.441
3019 619.342 465.44 47.1873 301.8 -67.1132 -62.059
3020 619.243 465.421 47.2017 301.9 -66.898 72.0897
3021 619.145 465.403 47.2161 302 -67.9581 155.381
3022 619.047 465.385 47.2305 302.1 -65.1196 -103.515
3023 618.948 465.367 47.2449 302.2 -65.3472 -8.8233
3024 618.85 465.349 47.2593 302.3 -62.3142 78.7469
3025 618.752 465.33 47.2737 302.4 -63.0282 -176.428
3026 618.653 465.312 47.2881 302.5 -64.7663 -99.8781
3027 618.555 465.294 47.3025 302.6 -63.681 -15.546
3028 618.457 465.276 47.3169 302.7 -65.6466 52.9405
3029 618.358 465.258 47.3314 302.8 -63.3174 136.275
3030 618.26 465.239 47.3458 302.9 -65.3622 -124.906
3031 618.162 465.221 47.3602 303 -68.5989 -68.0767
3032 618.063 465.203 47.3746 303.1 -70.5665 21.5091
3033 617.965 465.185 47.389 303.2 -73.5136 79.5335
3034 617.867 465.167 47.4034 303.3 -70.652 158.913
3035 617.768 465.148 47.4178 303.4 -67.9393 -74.5161
3036 617.67 465.13 47.4322 303.5 -72.0603 -2.03644
3037 617.572 465.112 47.4466 303.6 -68.361 39.9744
3038 617.473 465.094 47.461 303.7 -69.3002 103.077
3039 617.375 465.075 47.4754 303.8 -65.0887 135.901
3040 617.277 465.057 47.4898 303.9 -67.8907 -167.7
3041 617.178 465.039 47.5042 304 -65.7474 -166.567
3042 617.08 465.021 47.5186 304.1 -64.0869 -117.912
3043 616.982 465.003 47.533 304.2 -62.5015 -89.9473
3044 616.883 464.984 47.5474 304.3 -64.3006 -45.6615
3045 616.785 464.966 47.5618 304.4 -62.9624 -43.4437
3046 616.687 464.948 47.5762 304.5 -64.0715 3.39524
3047 616.588 464.93 47.5906 304.6 -66.9136 8.23298
3048 616.49 464.912 47.605 304.7 -69.353 31.3656
3049 616.392 464.893 47.6194 304.8 -66.2634 19.5865
3050 616.293 464.875 47.6339 304.9 -71.6528 75.5415
3051 616.195 464.857 47.6483 305 -70.3415 35.9573
3052 616.097 464.839 47.6627 305.1 -74.2228 92.7292
3053 615.998 464.821 47.6771 305.2 -71.1021 114.544
3054 615.9 464.802 47.6915 305.3 -72.654 176.145
3055 615.802 464.784 47.7059 305.4 -70.1778 123.832
3056 615.703 464.766 47.7203 305.5 -66.7988 158.308
3057 615.605 464.748 47.7347 305.6 -68.1107 125.944
3058 615.507 464.73 47.7491 305.7 -66.807 111.619
3059 615.408 464.711 47.7635 305.8 -63.6404 93.1094
3060 615.31 464.693 47.7779 305.9 -66.5815 70.1237
3061 615.212 464.675 47.7923 306 -61.8743 35.7513
3062 615.113 464.657 47.8067 306.1 -65.72 15.1058
3063 615.015 464.639 47.8211 306.2 -63.2982 -24.0397
3064 614.917 464.62 47.8355 306.3 -64.4928 -69.1066
3065 614.818 464.602 47.8499 306.4 -67.1427 -95.0981
3066 614.72 464.584 47.8643 306.5 -63.9045 -156.98
3067 614.622 464.566 47.8787 306.6 -70.3233 -178.555
3068 614.523 464.548 47.8931 306.7 -66.8714 111.5
3069 614.425 464.529 47.9075 306.8 -71.1654 77.5967
3070 614.327 464.511 47.922 306.9 -75.1655 118.577
3071 614.228 464.493 47.9364 307 -76.3372 56.6976
3072 614.13 464.475 47.9508 307.1 -67.0734 25.8261
3073 614.032 464.457 47.9652 307.2 -71.2606 -70.1891
3074 613.933 464.438 47.9796 307.3 -65.2933 -103.665
3075 613.835 464.42 47.994 307.4 -65.5185 163.282
3076 613.737 464.402 48.0084 307.5 -64.7124 93.4597
3077 613.638 464.384 48.0228 307.6 -63.7385 20.5992
3078 613.54 464.366 48.0372 307.7 -62.2148 -80.5327
3079 613.442 464.347 48.0516 307.8 -65.0544 -150.113
3080 613.343 464.329 48.066 307.9 -61.3963 112.023
3081 613.245 464.311 48.0804 308 -64.6304 12.3359
3082 613.147 464.293 48.0948 308.1 -64.141 -76.0948
3083 613.048 464.275 48.1092 308.2 -65.3788 -152.298
3084 612.95 464.256 48.1236 308.3 -66.8405 90.4139
3085 612.852 464.238 48.138 308.4 -66.4261 25.1289
3086 612.753 464.22 48.1524 308.5 -64.2086 -108.516
3087 612.655 464.202 48.1668 308.6 -68.9773 160.422
3088 612.557 464.184 48.1812 308.7 -64.9447 47.0517
3089 612.458 464.165 48.1956 308.8 -65.3096 -72.4359
3090 612.36 464.147 48.2101 308.9 -66.3164 161.796
3091 612.262 464.129 48.2245 309 -65.5833 64.9601
3092 612.163 464.111 48.2389 309.1 -62.9713 -83.6823
3093 612.065 464.093 48.2533 309.2 -68.6508 148.818
3094 611.967 464.074 48.2677 309.3 -63.863 36.8727
3095 611.868 464.056 48.2821 309.4 -64.2091 -119.271
3096 611.77 464.038 48.2965 309.5 -66.346 112.747
3097 611.672 464.02 48.3109 309.6 -65.5715 -26.7826
3098 611.573 464.002 48.3253 309.7 -64.09 -167.543
3099 611.475 463.983 48.3397 309.8 -65.3154 30.4337
3100 611.377 463.965 48.3541 309.9 -66.7737 -97.7122
3101 611.278 463.947 48.3685 310 -62.8027 106.308
3102 611.18 463.929 48.3829 310.1 -63.8104 -63.68
3103 611.082 463.911 48.3973 310.2 -63.2404 139.519
3104 610.984 463.892 48.4117 310.3 -63.3641 -30.2021
3105 610.885 463.874 48.4261 310.4 -63.4702 169.63
3106 610.787 463.856 48.4405 310.5 -62.6274 -16.141
3107 610.689 463.838 48.4549 310.6 -67.0137 157.68
3108 610.59 463.82 48.4693 310.7 -65.2359 19.6346
3109 610.492 463.801 48.4837 310.8 -63.5213 175.563
3110 610.394 463.783 48.4982 310.9 -67.354 -15.4528
3111 610.295 463.765 48.5126 311 -65.3839 177.903
3112 610.197 463.747 48.527 311.1 -64.9932 -22.0998
3113 610.099 463.729 48.5414 311.2 -64.9226 152.729
3114 610 463.71 48.5558 311.3 -62.0766 -56.2041
3115 609.902 463.692 48.5702 311.4 -64.0028 90.8782
3116 609.804 463.674 48.5846 311.5 -63.8458 -87.0922
3117 609.705 463.656 48.599 311.6 -61.6509 53.0329
3118 609.607 463.638 48.6134 311.7 -63.0526 -161.148
3119 609.509 463.619 48.6278 311.8 -62.6793 -20.3705
3120 609.41 463.601 48.6422 311.9 -64.8498 114.568
3121 609.312 463.583 48.6566 312 -63.3635 -88.8609
3122 609.214 463.565 48.671 312.1 -62.1631 37.5714
3123 609.115 463.547 48.6854 312.2 -62.5951 160.922
3124 609.017 463.528 48.6998 312.3 -62.8896 -75.322
3125 608.919 463.51 48.7142 312.4 -62.7161 45.5643
3126 608.82 463.492 48.7286 312.5 -64.4988 -174.423
3127 608.722 463.474 48.743 312.6 -62.1688 -52.0736
3128 608.624 463.456 48.7574 312.7 -62.3744 42.0491
3129 608.525 463.437 48.7718 312.8 -63.0444 160.185
3130 608.427 463.419 48.7863 312.9 -61.6526 -97.2141
3131 608.329 463.401 48.8007 313 -64.6224 -0.503819
3132 608.23 463.383 48.8151 313.1 -64.3718 127.446
3133 608.132 463.365 48.8295 313.2 -62.1165 -145.413
3134 608.034 463.346 48.8439 313.3 -62.9383 -49.0191
3135 607.935 463.328 48.8583 313.4 -61.8817 46.1903
3136 607.837 463.31 48.8727 313.5 -61.4612 117.202
3137 607.739 463.292 48.8871 313.6 -66.7479 -155.883
3138 607.64 463.274 48.9015 313.7 -62.6844 -60.6483
3139 607.542 463.255 48.9159 313.8 -63.6644 1.50042
3140 607.444 463.237 48.9303 313.9 -65.8641 111.856
3141 607.345 463.219 48.9447 314 -61.4445 162.82
3142 607.247 463.201 48.9591 314.1 -63.9723 -158.238
3143 607.149 463.182 48.9735 314.2 -62.8689 -63.9951
3144 607.05 463.164 48.9879 314.3 -61.0877 -38.3677
3145 606.952 463.146 49.0023 314.4 -64.7184 -9.7499
